! Center RA: 12 21 31.69052,  Dec: +28 13 58.50019 (2000.0)
! Established model.
! Flux (Jy) Radius (mas)  Theta (deg)  Major FWHM (mas)  Axial ratio   Phi (deg) T \
! Freq (Hz)     SpecIndex
 0.0454232      0.00000      0.00000 
 0.0484667    0.0300155     -90.0000 
 0.0229700    0.0300155      180.000 
0.00336086    0.0424483      135.000 
 0.0121344    0.0671167      116.565 
0.00356321    0.0671167     -63.4349 
 0.0122992    0.0600310     -90.0000 
 0.0203053    0.0949173      108.435 
 0.0124644    0.0671167     -116.565 
0.00406475     0.123757      104.036 
0.000193860     0.153050      101.310 
0.000911373     0.182577      99.4623 
0.000479725    0.0671167     -153.435 
0.00614592     0.212241      98.1301 
0.00115082     0.108222      123.690 
0.000263750    0.0949173     -161.565 
0.000660250     0.120062      180.000 
0.00452515     0.240124      90.0000 
0.00167024     0.108222     -56.3099 
0.00118411     0.123757     -165.964 
0.000675566     0.150077      180.000 
0.00172386     0.469817      116.565 
0.000348651     0.241993      97.1250 
0.000981162     0.127345     -45.0000 
0.000410625     0.153050     -168.690 
0.000737960    0.0600310      0.00000 
0.00155556    0.0424483      45.0000 
0.000686683     0.108222     -33.6901 
0.00186293     0.443173      118.301 
0.000295985     0.134233     -26.5651 
0.00150896     0.780402      112.620 
0.00129295     0.150077     -36.8699 
0.000403143    0.0671167      26.5651 
0.00100555     0.553458      102.529 
0.000340026     0.886169      113.982 
0.000505974     0.180093      180.000 
0.000322891    0.0949173      18.4349 
0.000226280     0.913675      66.7829 
0.000806003      2.16283      113.710 
0.000759080     0.658291      46.8476 
0.000687823      3.39026      97.6315 
0.000335043      3.12011      90.0000 
0.000855957      1.24304      109.759 
0.000515496     0.941334      67.5031 
0.000400496     0.483985      119.745 
0.00115264      3.12025      89.4488 
0.000867148     0.134233     -116.565 
0.000101873     0.560735      105.524 
0.000915906     0.792431      114.624 
0.000834472      2.15094      112.978 
0.000357872     0.902264      111.465 
0.00105839      13.0582      115.151 
0.000787514     0.175019     -30.9638 
0.000374059    0.0848966      45.0000 
0.000902883      1.21483      110.237 
0.000278415     0.969133      68.1821 
0.000154202      3.66220      108.134 
0.00103570      1.64433      128.329 
0.000271137      3.36051      97.6995 
0.000912308      3.69073      107.989 
0.000414623      1.83876      118.228 
0.000848943      2.88014      89.4029 
0.000510071      2.07728      100.827 
0.000665522      1.22554      111.554 
0.000141933     0.123757      14.0362 
0.000458702     0.499557      122.735 
0.000702573      7.41969      107.407 
0.000561743     0.210108      180.000 
0.000609956      3.15027      89.4541 
0.000790816     0.958383      69.8483 
0.000429826     0.582795      101.889 
0.000670273      7.46011      115.743 
0.000217921      2.08313      101.638 
7.31883e-05      13.0686      115.859 
0.000218754      4.03883      116.946 
0.000178559      5.63804      114.518 
0.000321010      7.59913      107.932 
0.000272380      13.0817      115.977 
0.000647873      3.43341      95.0153 
0.000645005      3.36467      98.2060 
0.000579361      10.2374      109.339 
0.000673283      8.40200      106.169 
0.000200846     0.636724      45.0000 
0.000622709      9.84468      112.578 
0.000180459      13.0454      115.032 
0.000286651      6.45409      110.123 
0.000276453      8.27855      111.917 
0.000242578      5.33170      111.803 
0.000550056      8.61358      116.920 
7.74643e-05     0.150077     -126.870 
0.000142404      4.20176      118.584 
0.000172110      5.62333      114.924 
0.000543232      1.09019      82.0874 
0.000115416      2.38093      109.114 
0.000422407      4.49685      104.683 
0.000281973      6.06779      114.537 
0.000213285      9.13639      112.188 
1.95950e-05      1.92613      108.160 
7.39637e-05      3.00740      94.0062 
0.000235038      3.93585      113.828 
5.58808e-05      2.11741      110.734 
0.000125114      12.9745      115.913 
0.000580231      2.34048      91.4697 
0.000280302     0.615866      46.9749 
7.24207e-05      3.60138      100.565 
9.14128e-05      8.38264      104.929 
0.000201696      8.26739      111.724 
0.000524578      10.1358      112.996 
3.66455e-05      9.89154      110.415 
0.000571435      3.27514      86.8478 
0.000336262     0.576579      128.660 
0.000119242     0.153050     -101.310 
5.28366e-05     0.930262      69.2114 
0.000219232     0.765248      115.560 
0.000335428      2.41919      109.553 
6.86678e-05      9.88111      110.252 
6.86382e-05      8.37515      104.736 
0.000131157      11.1715      118.905 
1.74147e-05     0.189835     -18.4349 
0.000437618      8.89653      117.514 
9.23271e-05      2.10723      109.990 
0.000278590      2.04230      100.158 
1.73173e-05     0.930262      110.789 
0.000423583      3.51564      117.440 
0.000182830      3.59600      100.095 
2.87444e-05      3.00964      94.5762 
0.000467648      11.1526      118.081 
0.000321903      6.91410      112.446 
0.000140285      6.03902      112.486 
0.000251728      2.97745      94.0465 
0.000420064      8.40418      104.684 
0.000178786      3.70011      108.431 
0.000238604      13.0949      116.095 
4.79575e-05      7.04799      112.524 
0.000345142      7.41077      107.185 
0.000104096     0.805400      116.565 
0.000158264      9.85295      110.312 
0.000379655      1.68650      128.497 
0.000194431      2.11596      108.184 
0.000143152      2.88061      88.8059 
0.000448480     0.912885      136.332 
0.000162730      6.46422      110.366 
6.00545e-05      2.00586      111.969 
0.000289695     0.150077     -90.0000 
0.000233619      5.17606      105.807 
5.96156e-05      9.32418      116.565 
0.000148236      8.32596      100.379 
0.000137762      13.0798      114.095 
0.000249440      11.1446      120.223 
6.94183e-05     0.153050      11.3099 
0.000264862      6.05539      114.278 
0.000158685      9.12510      112.013 
4.46697e-05     0.638138      48.8141 
0.000158808      7.03655      112.298 
2.92416e-05      11.1598      119.114 
0.000215600      3.76156      103.368 
0.000217613      10.3862      110.636 
0.000156117      11.1336      119.189 
6.41117e-05     0.403817      41.9872 
0.000202516     0.558320      126.254 
0.000140066      10.0277      107.948 
0.000328735      8.14728      99.3235 
9.08051e-05     0.295618      66.0375 
0.000176287      3.70719      95.5756 
0.000153642      8.43495      111.271 
0.000112129      3.39897      110.672 
7.42335e-05      9.35104      116.483 
0.000159532      2.43625      99.9323 
7.37984e-05      8.36093      100.544 
6.06468e-05      5.60890      115.331 
7.35225e-05      13.0524      114.148 
3.72911e-05      5.34292      112.102 
0.000109281      12.7070      115.597 
9.63472e-05      7.38865      105.788 
0.000145826      8.91043      117.685 
0.000106385      5.99442      120.031 
4.76343e-05      7.44713      115.535 
3.53439e-05      10.2526      110.558 
8.19608e-05      11.1597      120.357 
1.21628e-05      4.43608      101.306 
3.48758e-05      11.1221      119.400 
3.47996e-05      4.44206      101.686 
4.60720e-05      8.47383      111.387 
3.45431e-05     0.210108      0.00000 
2.28051e-05      11.1404      118.290 
1.13986e-05     0.150077     -53.1301 
1.12883e-05      8.82064      118.656 
0.000975528      9.43502     -65.7159 
-0.000942336      7.06313     -8.79383 
-0.000967237      9.70384     -94.0174 
-0.000754017      5.92593      45.4104 
0.000868128      7.78609      162.356 
-0.000326220      12.2995      39.7228 
0.000671877      8.06862      168.998 
-0.000238837      11.1546     -50.6016 
-0.000531210      9.28006    -0.125090 
-0.000691787      6.70032     -90.3401 
0.000512743      8.12294     -140.194 
-7.94654e-05      9.13383     -58.8853 
0.000836238      5.10242     -48.8101 
-0.000153966      6.59348      31.8595 
7.79179e-05      7.77998      162.498 
-0.000872493      1.03443     -41.0882 
-0.000361527      9.16164     -58.8423 
-0.000360502      12.3270      39.7346 
-0.000662139      12.0049     -147.104 
-0.000335514      11.4800     -143.430 
-0.000394845      6.57628      31.9527 
-0.000410680      6.46893     -127.971 
-0.000576494      10.1888     -115.708 
0.000206628      4.92399     -37.2401 
-0.000137283      11.1674     -50.5212 
-0.000576113      9.12337     -58.9942 
0.000446545      3.63138     -109.633 
-0.000396281      9.73804      58.6948 
-0.000378084      11.0690     -31.4800 
0.000384798      9.44306     -65.6080 
-0.000260997      5.72303      178.197 
-0.000316330      8.31397     -163.223 
-0.000317342      9.25980    -0.125363 
0.000549463      10.4572     -115.730 
0.000190122      9.38380     -115.639 
0.000307879      8.95677     -107.544 
-0.000131470      9.68848     -44.0806 
-0.000431670      12.3426      39.6744 
-0.000309897      12.3206     -53.7792 
-0.000252637      10.0956      139.177 
-0.000244235      7.06625     -8.95618 
-0.000187145      8.24311     -95.8466 
-0.000188025      9.98660     -16.4019 
-6.52274e-05      9.87271     -77.0073 
0.000302149      8.13794     -140.282 
-0.000361085      6.04503      75.0443 
-0.000189220      4.62384      142.736 
0.000187004      5.95764      33.6380 
-0.000181581      6.54813      53.4479 
-0.000357652      9.86835     -77.1177 
0.000124411      4.91221     -37.0590 
0.000242019      8.04874      168.971 
6.32310e-05      10.4488     -115.634 
0.000180052      6.30104      89.0925 
-0.000180476      8.49605     -93.5091 
-0.000122169      5.85153     -154.924 
-0.000296935      6.42911     -127.798 
-0.000178880      9.67447     -44.1609 
-0.000120236      8.04452     -145.124 
0.000176838      8.43439     -153.068 
-6.14246e-05      7.04624     -8.98183 
0.000117880      9.19316     -170.988 
0.000234109      8.68494      26.3879 
-6.10412e-05      11.6687      130.898 
0.000117873      5.65233      142.763 
-0.000176502      9.23037      26.2318 
0.000117352      9.36621     -115.690 
0.000177632      5.49341      132.343 
0.000177518      11.1358     -63.6663 
-0.000174818      12.6495      48.2680 
-0.000174867      4.85315      139.678 
6.00901e-05      8.40782     -153.131 
-0.000117191      4.07182      28.4495 
0.000175984      10.0947     -30.4766 
0.000230350      9.87268      71.8198 
-0.000116456      12.9422      129.544 
-0.000117232      9.60439      178.209 
-0.000117069      4.64385      143.225 
-5.93393e-05      10.3565      56.7417 
-0.000115780      7.43066      137.288 
-5.90948e-05      9.43841      107.131 
-0.000115574      8.42322     -105.422 
5.87806e-05      5.66847      142.887 
0.000171915      11.7365     -144.714 
-5.82255e-05      4.94791     -14.0341 
-0.000114022      8.18036     0.562375 
-5.80432e-05      5.91546      80.8543 
-0.000113755      11.0374     -28.9332 
-0.000169862      9.43246      107.014 
-5.71984e-05      11.3299     -144.992 
-5.71673e-05      9.61577     -126.799 
-5.70728e-05      9.75471      58.7543 
-5.71042e-05      6.27661     -85.7973 
5.68980e-05      5.94644      33.4755 
5.66554e-05      8.91950     -72.7846 
5.64244e-05      12.3762      37.1839 
-5.61495e-05      9.71549      10.9168 
5.58798e-05      9.49376     -72.2124 
5.58166e-05      4.12363     -173.879 
5.57435e-05      4.63371     -62.7752 
-0.000252227      9.27533      9.80981 
0.000462754      8.54824      165.085 
0.000855387      6.94372     -96.4469 
-0.000223255      3.09734     -121.537 
0.000398618      9.44634     -94.2503 
-0.000159974      9.25611      9.83039 
5.68794e-05      9.31979     -95.2942 
-0.000304605      9.29187      9.66543 
-0.000423443      11.0060      50.2334 
-0.000162530      7.52862      163.008 
0.000701170      7.65549     -38.6370 
-0.000568386      7.95066      147.429 
5.45375e-05      8.34709      159.525 
0.000106452      12.9151     -136.318 
5.43768e-05      12.5283      51.0267 
-0.000143278      9.96713      38.3203 
-0.000103480      6.24886      174.487 
0.000103866      9.30152     -95.4300 
-0.000101646      7.43969      164.245 
0.000197384      1.08757     -57.7683 
-0.000335623      5.21244     -171.840 
-0.000149239      11.5980      130.034 
-0.000236670      12.0001      41.5550 
0.000283115      8.35929      159.699 
0.000190027      12.5411      50.9547 
-0.000287246      12.1779     -47.9296 
0.000639557      13.3592     -129.960 
0.000262857      5.42888      15.1600 
-0.000139701      6.19682     -97.7877 
9.88737e-05      7.62561      46.5949 
-0.000229359      11.7120      130.846 
-0.000191456      7.54799      163.053 
-9.87344e-05      9.98304      38.2482 
9.03468e-05      8.10391      4.38650 
9.85354e-05      8.54305      165.217 
0.000279962      7.44553     -167.905 
-0.000376338      10.6460     -122.885 
-0.000139628      9.74413      10.5251 
-8.81844e-05      3.10414     -121.023 
-0.000286542      10.1001     -27.7302 
-0.000134379      6.02437     -87.9085 
9.52218e-05      13.3643      44.9386 
0.000171627      11.6917      122.141 
9.06055e-05      12.9005     -136.256 
0.000220904      12.1825      124.498 
-0.000175302      11.1137     -112.874 
0.000239859      6.98700     -149.177 
-0.000726833      12.3678     -36.5181 
-4.75828e-05      11.3392      129.417 
-4.75327e-05      9.15618      29.8701 
-4.69621e-05      7.43421      164.395 
-4.68419e-05      9.44474     -172.334 
-0.000306718      9.79865      8.92564 
9.07797e-05      13.0288     -136.431 
-9.08562e-05      8.21996     0.418439 
-0.000130143      6.23336      73.6027 
8.82237e-05      11.8414     -144.832 
0.000196823      7.75285      69.4602 
0.000191664      8.56192      165.250 
-0.000130018      4.91580     -100.075 
-0.000221778      9.57242      142.555 
0.000125606      9.29962     -95.3058 
0.000802963      6.69947     -166.712 
-4.50969e-05      6.22869      174.469 
0.000299653      7.00091     -135.347 
-0.000123279      9.14939      30.0410 
0.000170624      13.3781      44.8796 
-0.000204402      9.42466     -172.318 
-0.000188775      12.7578     -42.1393 
-0.000387334      10.4300     -140.602 
-0.000205059      7.45300      164.436 
4.46067e-05      7.64034      46.6993 
0.000298797      11.4813      30.2284 
-4.44076e-05      11.3263      129.338 
-8.71438e-05      11.9226      42.1429 
-0.000186180      7.36371      91.8687 
0.000125129      10.2928      79.4773 
-4.37364e-05      6.82194     -105.300 
0.000159843      12.5476     -40.0877 
0.000152327      10.1159      160.238 
-0.000795110      10.9931      129.685 
-0.000246671      7.44762      137.830 
-0.000289527      7.53434      162.866 
-0.000678140      11.4394     -116.474 
0.000117244      10.5797      138.142 
-4.24274e-05      2.89581     -14.8033 
-0.000522059      12.2616     -142.289 
-0.000240573      8.88644     -50.9359 
-0.000318767      6.63261     -95.7138 
-7.94837e-05      6.27382      176.159 
-0.000152050      9.27190      9.68645 
-4.14268e-05      11.6005      129.893 
-0.000318122      6.21079      12.6459 
-0.000153076      9.68458     -140.196 
-0.000563626      12.8878     -141.173 
-4.08797e-05      9.53842     -73.8063 
-7.60402e-05      9.07685      42.0513 
-4.09152e-05      11.9076      42.2084 
0.000226329      5.47309     -82.0165 
-0.000236149      9.77749     -52.1451 
-0.000279071      9.97051      38.1567 
0.000178676      13.0435     -136.492 
-0.000213306      5.04705     -18.7232 
4.03982e-05      4.37631     -50.5592 
-0.000199733      8.20045     0.419435 
-0.000204765      9.04097      151.169 
0.000552608      9.83863     -26.5670 
0.000111800      8.37130      159.877 
-3.96143e-05      10.8798     -127.081 
-3.95321e-05      6.84979     -104.886 
-0.000214916      12.0018      41.4185 
3.94225e-05      13.3925      44.8184 
-0.000373195      12.7723     -42.0805 
-3.92393e-05      6.00826     -71.5651 
-7.57436e-05      11.7273      130.781 
0.000143665      12.3737     -40.2798 
0.000162130      12.2727      37.3176 
3.89210e-05      7.76551      6.20752 
0.000231727      11.7097     -146.283 
7.53365e-05      8.02710     -171.544 
-3.85954e-05      2.90105     -15.1901 
-0.000111073      9.03701      86.4486 
-0.000175535      11.9063      42.3461 
-0.000111927      6.85326      39.0762 
-3.84777e-05      6.19421     -97.6089 
0.000206633      9.63439      169.717 
-7.05441e-05      11.2446      128.503 
-0.000108265      9.39188     -71.7576 
0.000505439      13.3932      44.6981 
3.82002e-05      7.65550      47.0138 
3.80945e-05      11.7855     -144.882 
-3.79725e-05      3.45795     -131.243 
-0.000170402      9.39067     -172.045 
3.76423e-05      7.79797      8.10983 
0.000242027      11.3394     -121.000 
-0.000408806      11.8681      130.831 
-0.000100303      9.74045      10.4079 
-7.17607e-05      6.02514     -87.7159 
-0.000392860      10.8680     -126.999 
0.000370876      9.87323     -106.233 
-9.91091e-05      8.11015     -146.977 
-7.15812e-05      9.01171      130.228 
-7.01438e-05      10.4823      40.5902 
0.000320328      8.63031      46.6911 
-0.000106653      9.81866      8.90729 
-0.000107217      6.08240      4.90453 
-0.000104479      8.82483     -39.3895 
-3.64853e-05      4.91938     -100.307 
7.16735e-05      11.7577     -144.903 
-0.000150911      8.70586      92.1043 
9.76849e-05      10.2701      79.5645 
-0.000128528      11.8399     -126.965 
0.000280896      7.68725      151.571 
-0.000191679      3.50554     -176.724 
0.000163167      8.98149     -107.630 
-3.57488e-05      6.86440     -104.685 
0.000100305      9.06158      1.01066 
0.000104215      11.6723     -53.1485 
0.000103582      9.07122      13.5144 
-0.000341194      8.98689     -42.7464 
0.000284948      8.26053      162.092 
0.000127031      9.28019     -95.3169 
0.000159479      8.01525     -72.8764 
-3.48561e-05      12.2094     -49.1844 
3.46465e-05      11.7300      122.252 
-6.35252e-05      9.40029      93.7806 
-3.43866e-05      6.83470      39.4222 
-6.63229e-05      10.7541     -150.716 
0.000419693      11.0528      142.425 
6.70458e-05      10.1263      17.8254 
6.59620e-05      10.0844     -134.276 
-9.46479e-05      8.10425     -146.779 
-3.40661e-05      11.0185      50.1555 
-9.47524e-05      9.95200     -37.0781 
-3.39081e-05      8.84584     -38.1133 
-0.000208499      10.3234      45.0000 
0.000258815      11.7461     -144.984 
-0.000428591      6.10183      4.88886 
-0.000180371      10.9839     -26.1449 
0.000121485      8.59884      147.346 
0.000121718      8.04714     -171.565 
3.34351e-05      11.0689      142.489 
9.46037e-05      12.5197     -40.0742 
0.000108261      10.0585     -50.4850 
-0.000120186      9.84222     -157.917 
-3.32325e-05      4.05402      28.5859 
-6.38588e-05      12.9030     -141.228 
-3.31889e-05      10.8691      54.0581 
-9.26997e-05      10.7325      71.5308 
-6.50658e-05      5.38929     -9.18166 
0.000274463      11.6601     -53.2282 
3.29631e-05      5.42381      14.9610 
-3.29545e-05      8.97998      128.581 
-3.29118e-05      7.47252      164.477 
-9.17012e-05      12.0164      52.7093 
-0.000151982      9.06380      41.9597 
-9.26424e-05      10.0731     -27.6856 
-0.000289223      6.05179      176.403 
-3.26270e-05      6.81964      39.5263 
3.25764e-05      12.1714      124.422 
0.000565028      9.09092      13.4845 
0.000121074      10.8046     -52.7473 
-0.000111670      10.1832      166.947 
-0.000197405      9.03828      86.3204 
9.10299e-05      9.44585     -168.024 
6.38300e-05      7.46887     -167.785 
0.000119550      5.47031     -82.2267 
0.000478789      11.5080      120.845 
0.000187866      10.2074     -104.988 
6.02428e-05      11.1122      143.565 
0.000603704      12.2443      37.2997 
-3.20190e-05      8.58834     -36.7628 
-0.000696270      12.8599     -49.9209 
-0.000144342      4.03690      28.7184 
-0.000272037      12.8114      39.6792 
-3.18527e-05      9.25267      9.70677 
