! Center RA: 12 21 31.69052,  Dec: +28 13 58.50011 (2000.0)
! Established model.
! Flux (Jy) Radius (mas)  Theta (deg)  Major FWHM (mas)  Axial ratio   Phi (deg) T \
! Freq (Hz)     SpecIndex
  0.137687      1.52028      90.0000 
 0.0342173      1.50002      90.0000 
 0.0147631      1.50016      90.7738 
0.000990263      1.56005      90.0000 
0.00476697      1.53979      90.0000 
 0.0265209      1.78003      89.3478 
0.00112417      1.58044      89.2655 
0.00646016      1.59995      89.2744 
 0.0190394      1.62057      88.5938 
 0.0124770      1.62021      89.2835 
0.00226534      1.75977      89.3403 
 0.0109594      1.47990      90.7844 
0.00576520      1.77992      90.0000 
0.00324042      1.75966      90.0000 
0.00326785      1.64047      89.2924 
0.00254399      1.65998      89.3007 
0.00257411      1.52042      89.2365 
0.00140287      1.80018      90.0000 
0.000221822      1.80029      89.3552 
0.000437344      1.64083      88.6111 
0.000644880      1.81980      89.3621 
0.00156842      1.84038      88.7617 
0.00244710      1.75977      90.6597 
0.00145211      1.74015      90.0000 
0.00217424      1.86118      88.1516 
0.000757680      1.71989      90.0000 
0.00412059      1.47976      90.0000 
0.000165457      1.68024      89.3091 
0.000766518      1.74027      90.6671 
0.00194010      1.60032      88.5760 
0.00323924      1.88068      88.1708 
0.000650687      1.88014      88.7879 
0.000463944      1.76011      91.2947 
0.00124543      1.90040      88.8009 
0.000589745      1.69975      89.3170 
0.00264372      1.46039      90.7949 
0.000567613      1.96012      90.5922 
0.000687859      1.78093      91.9317 
0.000698958      1.98037      90.5862 
0.00162233      1.72001      89.3251 
0.000595283      1.99988      90.5805 
0.00198761      1.58082      88.5584 
0.000702115      2.04030      90.0000 
0.00177926      2.05991      89.4365 
0.00153391      1.96041      91.1624 
0.00264427      1.46025      90.0000 
0.000565224      1.80197      92.5538 
0.00104030      2.08017      89.4419 
0.000600665      1.58145      87.8246 
0.000513886      2.16120      91.5917 
0.000982069      1.98067      91.1505 
7.09444e-05      1.88143      87.5541 
0.000107597      1.96093      91.7543 
0.000139853      1.72035      88.6753 
0.00272988      2.18135      92.1094 
0.000309535      1.78036      88.7200 
0.000299917      1.92035      90.6045 
0.000583634      1.76011      88.7053 
0.000287945      1.94016      91.1746 
0.000886242      1.93986      90.5984 
0.000535089      1.74060      88.6908 
8.83589e-05      1.74027      89.3329 
8.21535e-05      1.82146      87.4735 
0.000841172      1.69963      90.0000 
0.000154905      1.84170      87.5013 
0.00326262      2.20240      92.5972 
0.000432140      1.68012      90.0000 
7.38424e-05      1.80197      87.4462 
7.13741e-05      1.65986      90.0000 
7.12237e-05      1.82242      86.8607 
0.000327353      1.78173      87.4172 
6.90685e-05      1.64035      90.0000 
0.000185320      1.84265      86.8952 
0.000664655      1.43999      90.0000 
0.000306148      1.78271      86.7907 
0.000215831      1.86288      86.9290 
5.36894e-05      1.76149      87.3875 
0.00176544      1.44014      90.8061 
0.000291328      2.05981      90.0000 
0.000357486      1.86408      86.3071 
0.000299258      1.76249      86.7539 
0.000153622      1.69975      90.6830 
0.000185618      1.86549      85.6861 
0.000139815      1.98118      91.7364 
0.000100456      1.88495      85.7307 
0.00205768      5.09429      85.7256 
0.000185753      1.78544      94.5077 
9.48729e-05      1.62009      90.0000 
0.000126263      1.96165      92.3458 
0.000342606      1.88650      85.1398 
0.000195851      1.76375      86.0967 
0.00109556      1.56121      87.7963 
2.96768e-05      1.98190      92.3218 
0.000164525      1.96255      92.9149 
0.000589053      1.44054      91.5820 
2.84799e-05      1.65998      90.6993 
9.79463e-05      1.64047      90.7076 
0.000127134      1.78708      95.1313 
0.00175760      2.56848      151.638 
9.74521e-05      1.96368      93.5053 
9.37252e-05      1.88833      84.5273 
0.000206635      3.48743      104.275 
0.000217245      1.76524      85.4406 
0.000112772      2.08447      98.8214 
0.000144823      1.80916      95.7130 
0.000420440      3.34049      106.697 
0.000544695      2.20160      92.0900 
0.000187237      1.91051      83.9804 
0.000512761      2.08767      99.3709 
8.20388e-05      3.31622      106.471 
0.000196289      3.49248      104.598 
0.000211951      1.44124      92.3872 
0.000410078      2.66020      89.5636 
0.000431763      1.54189      87.0151 
0.000130225      2.08045      88.9047 
3.81666e-05      3.22778      106.185 
3.72121e-05      5.06318      84.5573 
0.000265702      1.83817      67.6122 
8.25096e-05      1.76690      84.8100 
0.000420327      3.27347      84.7390 
0.000149469      3.23348      106.530 
0.000102884      5.04490      84.3148 
0.000136914      1.44223      93.1914 
0.000150067      3.49745      104.907 
0.000195506      1.73737      78.0349 
3.42740e-05      1.82858      95.6521 
0.000502351      3.25404      84.7075 
0.000434739      1.91266      83.3992 
6.81206e-05      1.62021      90.7165 
0.000269136      2.64016      89.1369 
5.77664e-05      1.83068      96.2831 
0.000136241      1.50237      99.9516 
6.18401e-05      5.04695      84.0860 
0.000130230      2.11444      100.345 
0.000234630      1.63451      68.4526 
0.000255183      3.50272      105.227 
2.93843e-05      1.74747      84.7521 
0.000332223      4.96926      83.7582 
0.000262882      4.17242      97.1595 
0.000138737      3.13915      77.1132 
0.000118983      5.00883      93.4355 
0.000756954      1.74152      77.4069 
8.21396e-05      1.82804      66.7921 
0.000243155      1.52976      101.315 
0.000131316      4.96709      83.9905 
0.00132661      5.00766      93.2041 
0.000183335      1.93014      145.982 
4.91599e-05      1.42029      91.6046 
0.000129408      4.20068      88.9048 
2.64286e-05      1.98524      94.0532 
0.000214219      4.04606      83.4721 
0.000193793      5.11233      85.9599 
0.000344490      2.26550      103.797 
0.000484295      5.26010      84.9832 
9.92615e-05      1.44014      89.1939 
9.41672e-05      1.83055      68.1986 
0.000151626      1.82015      67.3783 
0.000192265      3.12856      76.3204 
0.000714585      3.27168      85.0923 
0.000143291      1.74944      84.0913 
1.26072e-05      2.00227      92.8570 
0.000597012      1.91400      145.656 
0.000210562      4.20110      88.6388 
2.34051e-05      2.00338      93.4358 
7.76050e-05      1.50600      100.711 
0.000254366      3.52227      105.141 
0.000172256      2.20095      91.5629 
0.000160108      4.17499      97.4354 
0.000138304      1.44054      88.4180 
0.00120052      5.11095      86.1865 
6.31280e-05      2.11818      100.884 
0.000426118      4.04841      83.1872 
9.85155e-05      1.59983      90.0000 
5.33192e-05      2.02164      92.2762 
6.36111e-05      1.55782      102.604 
0.000177920      2.66042      89.1435 
0.000776487      2.55066      151.422 
0.000139950      2.39754      109.490 
5.82992e-05      5.04908      83.8573 
0.000328792      4.09236      94.4801 
7.75766e-05      3.38371      107.901 
3.06747e-05      1.82340      68.7678 
0.000297296      2.47937      107.854 
1.02165e-05      1.42100      92.4212 
0.000150537      1.82817      70.1817 
8.62833e-05      1.58592      103.852 
1.98449e-05      1.44884      96.3336 
0.000121534      4.20163      88.3625 
4.60985e-05      3.25224      85.0629 
4.64006e-05      2.02251      92.8284 
0.000497744      2.32568      152.335 
0.000369350      3.13342      75.9604 
0.000134470      4.15823      97.7368 
9.63792e-06      2.04069      91.1167 
5.33895e-05      1.47986      99.3381 
-0.000761270      1.55700      110.304 
7.33081e-05      1.44124      87.6128 
0.000361804      1.78955      64.8641 
0.000116097      1.90306      146.141 
3.49698e-05      2.06226      98.3689 
-0.000405038      1.53801      110.566 
9.30434e-05      2.15011      102.353 
0.000203776      2.26075      103.298 
0.000254220      1.59089      104.561 
0.000155896      2.40438      109.945 
0.000670094      5.25837      85.2031 
1.77501e-05      1.42029      88.3954 
2.56441e-05      2.04119      91.6853 
7.34742e-05      1.45121      97.1287 
0.000381154      3.52761      105.458 
0.000194500      3.38999      108.226 
0.000137977      4.20226      88.0864 
0.000296967      1.79605      142.230 
7.39403e-05      1.42100      87.5788 
2.45739e-05      2.02361      93.4014 
0.000211819      1.91929      146.465 
0.000188011      4.16100      98.0132 
6.35371e-05      2.03666      97.3240 
4.69059e-05      5.05120      83.6372 
0.000150541      2.41110      110.381 
0.000153572      1.42200      86.7631 
2.98013e-05      2.04188      92.2536 
0.000225172      1.82164      70.7590 
0.000251668      4.20296      87.8206 
0.000105181      1.93520      82.8722 
7.99217e-05      4.17756      97.7007 
6.75758e-05      1.45386      97.9210 
8.66735e-05      2.04274      92.8004 
1.35063e-05      1.62084      105.741 
5.26852e-05      1.93621      146.796 
9.16746e-05      5.00657      92.9726 
8.08407e-05      2.41823      110.831 
0.000260689      1.59610      105.265 
0.000729583      1.80853      141.723 
-0.000277482      3.24571      75.3630 
0.000165161      2.47323      107.407 
0.000345156      2.05259      146.920 
6.69633e-05      2.35407      96.3321 
6.73169e-05      5.02680      92.9606 
6.49903e-05      1.92519      147.301 
0.000402612      1.42324      85.9790 
8.27140e-05      3.28408      103.020 
0.000136317      2.25618      102.798 
0.000166190      1.42665      95.6446 
0.000193789      2.42551      111.278 
-0.000894434      5.02094      95.2564 
0.000452327      3.13821      75.6149 
3.72966e-05      4.16388      98.2893 
0.000149879      2.04383      93.3677 
0.000235771      2.33468      96.3849 
5.84563e-05      1.82797      72.1675 
1.07050e-05      2.15454      102.879 
-0.000328596      5.04112      95.2354 
0.000325725      2.34365      152.565 
7.86427e-05      4.22402      87.5564 
7.01720e-05      3.40924      108.120 
0.000212983      1.93150      148.131 
-0.000643511      1.69186      61.0022 
-0.000462712      3.24065      75.7096 
0.000238097      4.89783      94.9218 
1.49902e-05      1.56698      104.023 
0.000261032      4.02904      83.1543 
0.000211155      4.22320      87.8311 
0.000259745      3.50809      105.546 
4.58756e-05      4.09399      94.7628 
8.70224e-05      1.81507      71.3628 
4.09570e-05      1.57201      104.739 
-0.000206053      4.29972      90.0000 
0.000253376      2.23643      102.912 
-0.000235340      4.29977      90.2700 
-0.000312771      5.41458      85.7639 
-0.000287049      1.94141      65.0099 
1.73765e-05      2.17997      90.5325 
0.000257450      1.56212      87.0538 
3.95658e-05      2.69211      153.049 
-0.000269522      3.04478      80.1663 
0.000188789      1.60135      105.938 
-0.000436184      3.10961      103.765 
1.26273e-05      2.44023      112.148 
0.000402144      3.14330      75.2571 
2.04826e-05      3.29198      81.9678 
0.000176496      4.22251      88.0956 
5.24320e-05      4.18032      97.9759 
0.000145753      1.78104      65.4542 
1.20784e-05      2.17987      90.0000 
1.20089e-05      2.44794      112.587 
3.47370e-05      2.42273      109.788 
2.57191e-05      3.26508      103.097 
4.63207e-05      3.29487      81.6189 
0.000185595      4.91632      94.6663 
8.16625e-05      1.74605      76.7581 
4.68719e-05      2.16046      89.4627 
1.12194e-05      5.07597      83.2080 
0.000216720      2.45550      113.008 
7.63165e-05      3.24189      105.754 
4.88623e-05      5.28029      85.0024 
3.73015e-06      2.36165      152.792 
5.34444e-05      3.29777      81.2836 
-0.000182894      2.34336      111.529 
2.06784e-05      2.41594      109.335 
4.87557e-05      5.07362      83.4352 
-0.000120359      1.96130      106.584 
0.000143661      4.22188      88.3704 
2.74454e-05      4.89954      95.1491 
5.52814e-05      1.64178      67.8193 
2.55995e-05      1.68203      92.7360 
-6.71658e-05      5.19676      83.1500 
4.93883e-05      3.23645      105.409 
7.02519e-05      3.30090      80.9360 
-0.000143663      3.23570      76.0572 
3.83663e-05      1.42480      85.1662 
2.88324e-05      1.90850      84.5853 
3.51476e-05      2.16073      88.9454 
-1.32038e-05      4.84595      92.8403 
4.70722e-05      2.67993      89.1497 
2.25084e-05      2.39086      109.032 
-9.69557e-05      4.84695      93.0706 
-5.97248e-05      2.35087      111.988 
-5.89156e-05      1.92375      64.7644 
3.41490e-05      2.03565      146.609 
2.16606e-05      3.24534      103.178 
1.54350e-05      1.42480      94.8338 
1.85507e-05      3.22239      105.852 
2.14075e-05      2.14909      104.560 
-2.44242e-05      3.18115      88.5537 
1.82647e-05      2.38457      108.589 
1.20905e-05      1.56324      86.3396 
1.20600e-05      3.19389      107.869 
3.04253e-06      2.12069      88.3779 
6.04074e-06      3.23112      105.063 
6.01101e-06      2.14095      88.3932 
2.99255e-06      1.70152      92.7047 
-0.00101887      4.56654      18.1134 
0.000642376      5.94314     -22.7673 
-0.000222462      4.47605     -79.4417 
-0.000937289      11.3741      28.4587 
0.000219361      9.70697      27.8844 
-0.000595283      4.49523     -79.4873 
-0.000480509      6.77250     -12.9723 
0.000561156      10.0463      164.055 
-0.000553997      8.37028     -100.883 
-0.000269198      7.24711      154.847 
0.000500735      10.2604      115.767 
-0.000561915      13.1354     -130.554 
-7.01906e-05      7.62184     -123.438 
0.000333937      9.69858      28.0461 
-6.89343e-05      7.25542      154.707 
0.000522712      5.96183     -22.6920 
-0.000200249      2.64998      65.9535 
-6.82081e-05      7.61070     -123.311 
-0.000488147      9.86611     -66.9685 
0.000195126      10.0407      164.166 
-0.000237620      7.26545      154.914 
-0.000440816      7.52498     -16.3621 
-0.000556524      7.58305     -123.272 
-0.000312283      3.93653      106.227 
-0.000418955      10.5236     -30.3682 
0.000131021      5.65785     -69.5124 
0.000191183      10.0637      27.5834 
-6.57212e-05      13.1222     -130.487 
-0.000243129      4.54729      18.1928 
-0.000478035      4.12375      10.0605 
0.000468908      11.5714     -54.4990 
0.000244665      8.67906      115.087 
0.000176279      9.31979      84.7058 
0.000639416      5.67684     -69.5840 
-0.000515265      2.65830      65.5547 
-0.000339086      11.7821      123.718 
0.000119113      13.0680     -44.6278 
0.000239283      7.09832      118.806 
-0.000235749      8.58740     -123.025 
-0.000572267      6.74895     -12.8418 
0.000121312      5.06644     -61.2067 
0.000288247      9.68907      27.9404 
0.000175198      6.57784      18.9868 
0.000121549      5.23719     -65.8808 
0.000502610      9.46191      173.447 
0.000172330      12.9778      38.6174 
-0.000451414      10.9485     -40.7031 
0.000281384      10.0544      27.4811 
-0.000278712      10.8147     -62.5797 
0.000225859      6.66349     -63.8187 
0.000275303      5.22894     -66.0834 
0.000274120      5.51972     -83.1291 
0.000111735      9.68402     -84.5487 
0.000220808      8.08359     -38.5743 
0.000169063      12.7600      126.778 
-0.000114388      10.5036     -69.8406 
-0.000168153      8.30475      91.9314 
-0.000275227      8.33484      101.766 
0.000167888      13.4089     -132.160 
-0.000326326      11.0508     -32.8851 
-0.000215818      3.94224      106.510 
-0.000218493      6.12932     -74.2878 
-0.000111550      13.6113     -46.7871 
0.000162710      8.91453     -123.188 
-0.000161775      11.0918     -115.872 
-0.000161892      3.72777      36.9322 
0.000108163      5.11679      71.7803 
-0.000268148      14.3403      135.339 
-0.000216483      11.3569      28.5056 
-5.57521e-05      9.57835      174.849 
0.000108729      5.49529     -148.394 
-5.51782e-05      9.17891     -134.384 
-0.000160857      10.4778     -69.9026 
0.000108452      11.4133      40.0260 
0.000192887      10.4946      134.073 
0.000107440      7.08858      118.662 
-0.000105639      9.55892      174.839 
-0.000158159      11.7965     -45.9613 
0.000158486      8.92054      150.444 
-0.000105620      7.33908      155.531 
5.32624e-05      4.77018     -12.3440 
-0.000104424      9.16475     -134.293 
-0.000104736      8.32500      91.9267 
5.29515e-05      12.7484      126.708 
-5.28049e-05      13.5979     -46.8470 
-5.26366e-05      10.3622     -70.3749 
5.25692e-05      10.3078      51.6183 
-5.25619e-05      5.18580      174.245 
5.23423e-05      8.67049      114.966 
-5.23089e-05      9.95636      44.3496 
8.19072e-05     0.808873     -171.464 
-0.000103400      10.2230     -105.313 
5.20723e-05      4.78998     -12.2922 
5.20214e-05      12.0854     -35.9798 
5.19676e-05      9.23935     -116.344 
-5.19103e-05      11.8719      43.0201 
-5.18318e-05      8.34848     -31.4813 
5.14291e-05      5.51192     -148.500 
-5.13969e-05      9.95654     -3.33984 
-0.000624786      8.20556     -145.224 
-0.000417395      12.1305      50.3510 
-0.000369361      11.4493      56.2537 
-0.000813155      9.75098     -4.58605 
-0.000301142      9.94101     -114.863 
0.000207465      12.9454     -138.132 
-0.000107638      13.1589      133.154 
0.000287444      9.80805      131.197 
0.000144451      9.30938      84.0826 
-5.36536e-05      10.0741     -46.7717 
5.32694e-05      9.90981      47.6177 
-0.000536207      8.22221     -145.305 
-0.000697891      9.77563     -74.9397 
-5.19415e-05      10.0880     -46.6879 
0.000272039      4.56411     -36.2670 
-0.000280424      7.19575      176.173 
0.000149098      9.31149      83.9586 
-0.000358943      10.2856     -70.5776 
-0.000311410      13.1723      133.216 
0.000231450      9.89617      47.7044 
-5.03892e-05      10.1867     -46.5909 
-0.000374949      10.0460     -46.7737 
-0.000866701      11.9793     -131.007 
-0.000247522      10.3918      126.627 
0.000416802      4.00818      164.371 
-0.000742549      12.2284      129.025 
-0.000341929      10.2002     -46.5113 
-9.16482e-05      11.2563     -145.349 
-0.000535703      12.2004      129.014 
9.14383e-05      10.2951      63.5825 
0.000272001      12.8539     -138.721 
0.000206888      9.92185     -156.223 
-8.98273e-05      8.25283      3.19515 
0.000291999      13.2876      137.012 
-0.000217426      5.79869     -102.549 
8.79054e-05      8.75972      131.113 
-0.000128582      10.4358      128.387 
0.000126773      9.09176     -11.1597 
-0.000165406      10.3801      126.540 
0.000197946      9.32953      84.0954 
8.20238e-05      10.3038      63.4853 
-8.14290e-05      5.80313     -102.744 
-4.33973e-05      12.1585      50.3411 
0.000192794      9.99336     -25.2316 
-0.000188757      5.16439      174.447 
0.000161520      4.45347     -74.9007 
-0.000120705      11.4876      56.1428 
-0.000155913      8.55316      8.47062 
-0.000155324      7.13719      175.985 
-0.000119718      9.95939     -114.814 
-7.30483e-05      8.54692      2.27935 
-8.10968e-05      11.2730     -145.408 
-0.000261389      10.8237     -152.488 
-0.000118451      2.96364     -58.2376 
0.000118331      10.3132      63.6326 
-0.000341214      8.25172      3.05469 
-0.000256775      12.1715      50.2677 
0.000199833      12.2572      138.639 
4.12250e-05      10.0278     -154.353 
-0.000381798      10.1113     -134.759 
0.000224781      9.83129     -99.3653 
-7.85951e-05      10.2283     -46.5042 
7.38365e-05      10.3572     -55.5443 
-4.03262e-05      9.78440      91.7579 
7.56650e-05      13.4519     -46.1459 
0.000616848      10.1668     -99.0535 
-0.000180905      10.4517      128.318 
-7.66051e-05      10.9577     -138.923 
3.95985e-05      4.54779     -36.4180 
3.94787e-05      8.77306      131.213 
0.000165561      12.1980     -46.9918 
-0.000120130      10.7242     -119.862 
-7.54682e-05      7.51955      175.880 
0.000184360      11.1578      37.9389 
