! Center RA: 12 21 31.69052,  Dec: +28 13 58.50011 (2000.0)
! Established model.
! Flux (Jy) Radius (mas)  Theta (deg)  Major FWHM (mas)  Axial ratio   Phi (deg) T \
! Freq (Hz)     SpecIndex
 0.0365368    0.0286526      45.0000 
 0.0150512    0.0202604      90.0000 
 0.0557429    0.0446338      63.0042 
 0.0354393    0.0633577     -108.650 
 0.0517342    0.0828082     -104.162 
 0.0102179    0.0896014     -116.350 
0.00492023    0.0633577      71.3505 
 0.0402715    0.0600310      90.0000 
0.00320378    0.0802914      90.0000 
0.00254755     0.101837      101.476 
0.00625188     0.107434     -111.727 
0.00842896    0.0202604      0.00000 
 0.0116931     0.121759      99.5784 
0.00726810     0.134233     -116.565 
 0.0111757     0.126477     -108.327 
0.00150708    0.0202604     -90.0000 
 0.0127824     0.145849      105.824 
 0.0122319      0.00000      0.00000 
0.00124209     0.141777      98.2159 
0.00303893     0.152624     -113.162 
0.000979980     0.170734      110.586 
0.000143356     0.197181      114.029 
0.000206936     0.223834      116.479 
0.000976296    0.0998015      90.0000 
0.000799760     0.250509      118.638 
0.000180988     0.304887      121.617 
0.000547239     0.332828      122.759 
0.000246234     0.360880      123.723 
6.22163e-05     0.278118      120.301 
0.000674878     0.387976      124.520 
0.00184938    0.0202604      180.000 
0.00197344     0.145849     -105.824 
0.000105684     0.121759     -99.5784 
0.000256072     0.416183      125.237 
0.000791257    0.0286526     -135.000 
0.000398675    0.0446338     -153.004 
0.00218540     0.120062      90.0000 
0.000633073     0.350038      120.964 
0.000104523     0.366905      119.396 
0.000298521     0.447333      116.608 
0.000484059     0.465536      115.491 
0.000827677     0.491629      116.565 
0.000786367     0.675085      101.997 
0.000592195     0.518891      117.566 
7.31171e-05     0.344213      125.596 
0.000430346     0.315980      124.747 
0.000762118     0.679409      103.606 
3.22948e-05     0.372066      126.223 
0.000124419     0.545937      118.397 
9.08437e-05     0.399806      126.913 
0.000145993     0.563176      117.453 
0.000457728     0.141777     -98.2159 
0.000530849     0.474259      117.619 
0.000647798     0.288454      123.649 
2.84690e-05     0.572799      119.251 
0.000233079     0.411820      129.084 
5.54442e-05    0.0397705     -90.0000 
0.000563385     0.590559      118.291 
2.72289e-05     0.791300      106.132 
5.33374e-05     0.810060      105.749 
7.69215e-05     0.797167      107.531 
9.47777e-05     0.829578      105.369 
2.53578e-05     0.380236      86.9456 
0.000357690     0.381773      84.0205 
0.000244948     0.849131      105.006 
0.000159427    0.0633577     -71.3505 
0.000223215     0.777872      107.981 
0.000704943     0.164706     -103.973 
0.000182057     0.867991      104.673 
0.000239621     0.424884      131.205 
0.000740554    0.0446338     -63.0042 
0.000280895     0.659734      104.020 
0.000439139     0.260826      122.547 
0.000202707     0.887605      104.342 
0.000772384     0.618057      119.055 
0.000376050     0.784114      109.337 
0.000217365     0.438496      133.197 
0.000393577     0.384412      81.0157 
0.000179987     0.907248      104.025 
0.000250701     0.931206      104.943 
0.000208433     0.452074      135.000 
0.000411960     0.161111     -97.2243 
0.000559801     0.791053      110.721 
0.000288475    0.0720098     -56.4755 
0.000213414     0.101837      78.5245 
0.000273938     0.388092      78.0600 
0.000162217     0.950796      104.628 
5.19433e-05     0.640096      104.460 
1.36045e-05     0.992954      99.2630 
8.79894e-05     0.121759      80.4216 
0.000146325      1.01296      99.0785 
0.000192690     0.466621      136.759 
0.000754509    0.0562440     -45.0000 
7.16272e-05     0.780402      112.620 
0.000155480     0.184432     -102.453 
0.000186026     0.955909      105.760 
4.74228e-05      1.16375      109.042 
1.19749e-05     0.635182      118.200 
0.000404281      1.17052      109.980 
0.000223821     0.475398      75.3715 
0.000363498      2.12822      111.490 
0.000242528     0.369026      77.4333 
0.000724315     0.466502      120.980 
6.63010e-05     0.635505      102.756 
0.000113378     0.644631      119.728 
0.000137623     0.481580      138.411 
9.39488e-05      1.01006      97.9856 
0.000145543     0.159832     -90.0000 
0.000205847     0.181229     -96.4188 
0.000151672     0.107434      68.2729 
0.000199256     0.961610      106.922 
0.000528835      2.13573      111.996 
0.000446496     0.496341      139.906 
0.000282647     0.480914      73.0353 
0.000242587     0.815792      107.118 
0.000254092      1.17760      110.906 
0.000271529     0.373757      74.5128 
0.000499294     0.627763      120.611 
6.78445e-05      1.00745      96.8445 
5.98540e-05     0.631341      100.963 
6.44984e-05     0.967701      108.070 
4.21955e-05     0.986983      107.705 
7.30861e-06     0.787330      117.224 
0.000169981     0.180093     -90.0000 
8.34165e-05     0.271820      126.016 
8.82631e-05     0.796445      118.473 
0.000351655     0.161111     -82.7757 
2.63867e-05      1.00523      95.6978 
0.000183797     0.993090      108.777 
0.000241084     0.803259      108.858 
4.83975e-05     0.980215      91.1844 
0.000137065      1.18470      111.788 
0.000100521     0.116465      58.9729 
3.88032e-05     0.980005      90.0000 
1.06357e-05      1.17680      107.823 
0.000242995      2.05568      107.549 
0.000250313     0.959745      90.0000 
0.000174407     0.486965      70.8391 
0.000248934      1.18945      106.606 
3.31196e-05      1.19237      112.692 
0.000161922     0.999795      109.877 
1.43250e-05     0.788772      120.468 
0.000110933     0.181229     -83.5812 
0.000157485     0.354273      73.6379 
1.40546e-05     0.806301      119.738 
0.000112367      2.23812      114.271 
9.80535e-05      2.14340      112.498 
3.04788e-05    0.0848966     -45.0000 
1.24790e-05     0.627803      99.1471 
8.71897e-05     0.799236      121.720 
6.99544e-05      1.18179      113.977 
-0.000504706     0.170734     -159.414 
2.30017e-05     0.269397     -138.048 
5.58918e-05     0.284207     -140.679 
9.45411e-05     0.164706     -76.0271 
0.000118321      1.00686      110.961 
8.55963e-05     0.493986      68.6188 
5.88707e-05      1.18985      114.836 
7.71262e-05      2.15094      112.978 
5.57972e-05     0.349279      76.7101 
1.68374e-05     0.128090      51.1829 
5.74423e-05     0.288454     -146.351 
3.82028e-05      1.18381      105.666 
1.66971e-05    0.0896014     -63.6495 
-8.54369e-05     0.636355      133.710 
-6.14773e-05     0.739882      90.0000 
-6.32528e-05     0.188432      148.019 
0.000370969      3.20663      113.530 
-0.000480243      4.68978      86.3305 
-0.000424778      10.7059      135.528 
-0.000519888      9.32421      31.8495 
0.000275074      9.88738     -140.417 
0.000338367      14.1006     -135.632 
0.000392610      9.15177     -150.692 
-0.000361677      7.13121      11.8160 
0.000195421      6.48463     -153.832 
-0.000174993      7.89357      119.946 
-0.000324712      8.86978      92.7155 
0.000136754      4.04606     -6.52795 
0.000166826      10.0248     -52.3744 
0.000437190      12.0384      48.1001 
0.000251633      3.21447      113.848 
0.000253569      11.7858      46.7182 
-0.000213505      4.11063      18.4316 
0.000275013      7.60073     -97.2541 
-0.000255011      7.33788     -141.973 
0.000246737      3.58738     -67.7268 
0.000573130      6.37412     -101.765 
0.000243917      6.98790     -43.8383 
9.70949e-05      2.25201     -70.2730 
-3.40149e-05      7.12899     -63.8638 
-0.000208364      9.10178     -160.890 
9.64788e-05      5.78808      66.8053 
-9.27024e-05      8.89296     -54.0594 
6.31838e-05      3.63969     -149.634 
0.000356748      9.62339      131.209 
6.31121e-05      7.42540      134.234 
0.000183467      7.61162      152.963 
0.000262841      7.36704      167.774 
-3.27512e-05      4.08597      18.2586 
-0.000119229      7.14719     -63.9353 
-8.94376e-05      10.8505     -46.4207 
0.000175281      6.98250      68.1380 
8.99700e-05      8.60986     -19.8231 
-0.000117656      9.79061      92.6929 
-5.99477e-05      7.90332      120.068 
3.11416e-05      10.9051     -37.7744 
8.77679e-05      8.17435      101.147 
0.000144268      2.82664     -71.4400 
-0.000143366      5.91986      124.814 
-8.76535e-05      5.86684      172.755 
-5.98542e-05      10.0241     -33.2785 
0.000169212      5.79608      64.2311 
-3.03652e-05      9.08263     -160.848 
-0.000194613      12.7997      131.135 
0.000167671      10.5636     -162.595 
2.99825e-05      1.86032    -0.624012 
0.000111403      12.6340     -125.856 
0.000113806      5.46991      15.9162 
-0.000140784      9.41447     -100.401 
-8.51854e-05      6.26464      81.7428 
-8.25524e-05      8.54913      170.033 
-2.90686e-05      7.28819     -87.3267 
8.22189e-05      3.28793     -126.593 
-2.87243e-05      8.40352      149.226 
0.000107983      6.08791      53.2784 
-5.60311e-05      9.92313      74.4504 
-2.85661e-05      2.77119      67.5043 
-8.25936e-05      7.30003     -25.3033 
2.83852e-05      2.27770     -69.9830 
5.46724e-05      10.9940     -56.4271 
2.81829e-05      6.20915      73.7246 
-0.000109013      7.71500      59.9786 
-5.42162e-05      9.20273     -75.2714 
0.000107043      7.91587     -26.2396 
-5.48162e-05      7.32193     -141.876 
8.07611e-05      7.95122      95.0515 
-5.41003e-05      9.34202      108.863 
-5.34344e-05      7.89384     -6.69265 
5.36546e-05      9.90242     -140.489 
-8.09399e-05      9.33545      3.31778 
2.76044e-05      10.2635      40.0174 
-2.75444e-05      11.9050     -132.479 
2.74220e-05      6.21465      73.5519 
5.30766e-05      7.59425      152.896 
-5.30282e-05      9.34079      31.7863 
-5.32358e-05      11.8918     -132.409 
-2.69551e-05      4.18009      53.9530 
2.69032e-05      10.5175      121.786 
2.68794e-05      8.84677     -158.656 
-2.68512e-05      5.97983     -157.380 
2.68519e-05      5.10061      159.576 
2.67405e-05      10.8274      54.5486 
5.24063e-05      8.09166     -48.7071 
-2.66641e-05      10.8280     -66.3697 
2.66614e-05      11.8660     -135.615 
-2.65514e-05      8.42066      141.171 
-2.65717e-05      11.2629      145.126 
2.63819e-05      10.2785      39.9475 
-2.63249e-05      13.9461      44.0713 
-2.62773e-05      5.16624     -13.6608 
2.62196e-05      11.2427     -63.4794 
2.60976e-05      7.79064      147.900 
-2.60014e-05      6.21739      9.06897 
2.59745e-05      5.45043      15.9747 
2.59844e-05      6.52920      112.324 
2.57928e-05      12.0209      134.866 
-0.000154183      3.86914      54.2569 
-0.000114629      9.00589     -71.8881 
0.000194963      8.22221      145.305 
0.000167669      7.35684     -160.628 
-0.000216730      4.14909      18.2547 
-0.000100392      10.2774      169.346 
0.000208064      8.08416      147.528 
0.000156727      3.82054     -64.9097 
-0.000142521      9.41351     -114.876 
-9.93459e-05      3.85734      54.5012 
-0.000290918      10.2965      169.366 
5.12162e-05      7.52346     -88.1710 
-0.000200030      11.1185     -133.690 
7.42919e-05      5.50213     -88.5386 
-9.16755e-05      8.99985     -72.0062 
-0.000153066      3.50707      104.194 
-0.000173961      8.62148      142.067 
0.000269505      12.0681     -138.226 
0.000141073      11.9889      58.2976 
0.000173618      8.52998      77.2695 
-0.000175159      13.1696     -132.046 
-0.000130619      10.7005     -123.719 
4.70432e-05      3.81199     -65.1855 
-8.77751e-05      4.32776     -23.1242 
-4.43089e-05      5.99897      173.493 
-0.000100330      8.03880      161.428 
-6.37933e-05      5.31949     -102.158 
-0.000116649      13.1560     -131.981 
-6.53347e-05      3.90047     -154.485 
6.39978e-05      9.21576     -57.5871 
4.47028e-05      6.27660      157.522 
0.000139447      5.18861     -3.31634 
4.33301e-05      10.5462     -142.086 
6.37481e-05      5.50165     -88.7495 
0.000207132      9.80633     -29.4387 
9.20225e-05      9.81094     -74.6319 
6.28726e-05      9.40722      21.7131 
0.000113285      9.20496      154.381 
-7.74864e-05      5.80017      149.543 
-0.000176814      13.6480     -134.345 
0.000162623      10.9924      114.282 
0.000106567      9.77886     -111.476 
0.000120957      3.52588     -118.458 
-0.000139102      11.1304      58.5957 
7.48034e-05      10.3571      57.1401 
5.72030e-05      7.38770     -70.8786 
3.94888e-05      5.68820     -116.295 
-0.000114158      9.45451      69.5701 
4.01680e-05      5.18978     -3.53138 
9.16706e-05      8.12283      66.3406 
7.51485e-05      6.28438      157.351 
-8.93859e-05      8.10459     -19.9097 
3.79577e-05      7.33101     -160.725 
7.13609e-05      6.37829     -101.943 
8.80882e-05      9.50023     -163.739 
3.66892e-05      6.53497      114.208 
-1.93542e-05      8.23487      161.303 
-0.000120060      11.1829      25.4199 
0.000217440      7.04934      177.071 
-0.000104458      10.7299      145.096 
-1.93244e-05      9.53883     -102.840 
0.000134814      10.1479      38.5182 
-7.30610e-05      11.9848      127.406 
0.000202466      9.39974      21.5984 
-0.000111377      2.43887      149.450 
6.97824e-05      11.4165     -39.0992 
-0.000153870      10.6893     -123.629 
8.95769e-05      5.87272     -142.189 
-3.53837e-05      7.18473     -135.901 
5.30321e-05      6.71528      29.2374 
-3.40711e-05      5.81764      149.645 
-1.82655e-05      4.16762      18.1707 
0.000112677      10.6303      114.924 
-6.75245e-05      11.9007      138.407 
-0.000264811      9.53451     -102.726 
-1.81367e-05      7.57182      146.312 
-3.47181e-05      4.30914     -23.2300 
-0.000301026      10.6168     -139.891 
3.52334e-05      3.83714     -157.316 
0.000175985      10.3141      164.942 
0.000370141      12.1483     -44.3994 
1.78221e-05      3.81088     -64.5046 
5.04632e-05      13.6403     -43.0985 
3.50374e-05      7.85197     -8.78987 
-1.76613e-05      5.94606     -156.198 
-0.000286615      13.6335     -134.405 
1.74877e-05      12.0826     -138.288 
-7.60372e-05      12.7281      45.5088 
-1.73952e-05      2.80258     -66.0017 
1.72886e-05      10.6388      115.023 
4.90520e-05      10.4994      28.8108 
-0.000154990      10.3874     -106.097 
-3.27139e-05      7.49850     -111.430 
-1.69877e-05      7.55109      110.785 
-0.000150335      11.5590      120.694 
-1.69025e-05      5.91966     -156.291 
6.30847e-05      8.67923     -47.7087 
-0.000155448      10.9678     -66.0041 
3.27219e-05      8.64661     -107.641 
-0.000389377      11.9967      127.480 
6.24118e-05      12.0016     -35.9162 
-1.66560e-05      9.40532     -114.768 
-3.20468e-05      8.48022     -37.1386 
1.65566e-05      11.4977      118.125 
-0.000101913      13.4111     -133.551 
0.000119047      11.8995     -32.9966 
-6.92557e-05      5.30424      116.663 
-7.48693e-05      9.46134      69.4594 
-1.64416e-05      2.81088     -65.6244 
-0.000252587      5.90112     -156.212 
1.62693e-05      13.1046      138.403 
1.61000e-05      3.69096      29.9009 
3.04125e-05      7.23105      141.514 
-5.93555e-05      7.54419      110.647 
-3.08341e-05      6.25197      26.8111 
1.58317e-05      8.23826      145.382 
3.11812e-05      12.1813      146.520 
1.57375e-05      7.39395     -71.2212 
-4.56140e-05      12.6302      134.165 
-4.39254e-05      8.75770      25.5682 
2.48691e-05      10.3466      57.2308 
2.93615e-05      11.2088     -64.3030 
4.41340e-05      7.83269     -8.81168 
-6.34796e-05      5.93893      67.8423 
2.99942e-05      12.0685      43.3195 
-1.53479e-05      11.5171     -122.808 
-4.25982e-05      10.3263      156.365 
6.86601e-05      8.13098      66.2099 
-7.15642e-05      12.8130      131.203 
-0.000180349      8.46440      164.091 
6.75755e-05      10.9169     -123.341 
-6.43248e-05      12.9935      50.1826 
6.84878e-05      9.49421     -65.2154 
0.000208437      10.3289     -33.2294 
-1.51506e-05      5.61881      118.023 
4.18553e-05      11.3886     -39.0820 
1.50403e-05      6.72312      29.0024 
0.000247643      10.0750      79.9413 
4.24998e-05      12.1976      146.571 
2.78187e-05      6.54331      114.369 
2.80387e-05      5.20884     -3.30345 
2.89101e-05      13.0895      138.344 
0.000102390      9.48627     -163.592 
0.000113885      11.2726      59.9788 
1.48531e-05      7.18501     -124.795 
-1.48354e-05      5.37769      125.464 
-0.000163193      11.9142      138.334 
-6.31218e-05      10.7019     -59.0721 
9.60904e-05      11.7924      58.7355 
4.15900e-05      8.06000      179.717 
-2.83605e-05      4.29122     -23.3328 
1.46238e-05      3.67406      30.0526 
-1.46440e-05      11.5341     -122.753 
4.07954e-05      10.2206     -90.4501 
0.000148379      12.3301      140.395 
-1.45785e-05      2.79244     -65.4528 
2.77263e-05      8.19464      121.322 
5.29153e-05      10.4921      28.9591 
0.000125361      12.1869      146.648 
-9.12205e-05      9.96569      88.0453 
2.71565e-05      10.3610     -171.227 
4.14655e-05      9.78599      148.454 
8.43994e-05      9.93891      95.0809 
1.42919e-05      5.84888      167.959 
7.82950e-05      11.8643      130.213 
-0.000349237      12.8220      132.851 
8.94556e-05      9.89857     -93.4769 
0.000113913      8.00530      12.9954 
0.000428970      11.9635     -51.7881 
-6.71783e-05      12.5036      133.962 
-5.14832e-05      11.2005      25.3770 
-2.57240e-05      10.7466      145.158 
2.71438e-05      7.37524     -160.678 
1.40845e-05      9.77540      148.555 
0.000122914      12.0180     -35.8596 
2.69967e-05      7.19659     -124.928 
7.56846e-05      10.1327      38.5869 
0.000148049      13.8885      45.6983 
-5.08842e-05      11.1275     -123.118 
-5.11969e-05      3.13205      106.694 
1.38192e-05      11.5301     -62.6345 
2.64227e-05      8.79964      140.811 
5.10063e-05      13.7379      41.9314 
8.53679e-05      2.10546     -38.8225 
-2.56608e-05      11.5447     -122.835 
-1.34447e-05      7.19930     -136.014 
1.34565e-05      8.66561     -47.8077 
-1.34273e-05      6.22543      26.7257 
2.53386e-05      9.23287     -57.6545 
-1.33762e-05      10.8285      114.674 
7.27438e-05      12.3458      140.455 
3.81711e-05      11.8825     -33.0498 
3.68972e-05      10.7044     -52.7429 
-1.32388e-05      6.62019     -90.5196 
-8.18047e-05      5.61348      34.2572 
-0.000121992      11.5422     -121.321 
-3.66643e-05      5.38947      125.640 
1.30924e-05      10.0070     -166.240 
-1.31054e-05      10.9879      143.212 
9.29491e-05      9.80326      148.516 
-9.71347e-05      8.74930      25.4530 
-2.50809e-05      10.9446      38.5475 
3.62375e-05      9.78629     -111.586 
-2.48499e-05      7.53707      110.503 
2.47141e-05      9.79269      148.617 
9.18680e-05      7.86498     -128.908 
2.43778e-05      8.66650     -47.9936 
5.92784e-05      8.71839     -5.39802 
-9.66172e-05      10.8107      114.717 
1.26693e-05      11.8026     -31.3455 
5.71789e-05      7.16799     -81.0080 
0.000146010      7.69762      140.268 
5.77456e-05      11.8440     -41.5790 
-2.43724e-05      12.7844      131.195 
-3.62445e-05      6.94838      6.77888 
-8.06961e-05      11.8384     -51.3096 
-8.78041e-05      9.55848      57.0410 
9.75952e-05      10.6994      111.722 
-3.51624e-05      9.85854      120.207 
2.39651e-05      10.3640     -171.120 
-3.44648e-05      11.9102      139.973 
-0.000254328      12.5450     -135.710 
-0.000195883      13.4245     -133.612 
0.000176874      13.8341     -46.1714 
6.83751e-05      11.0108      114.238 
-1.23246e-05      12.7144      45.5715 
-1.22835e-05      5.59736      34.3697 
-2.37840e-05      9.46846      69.3446 
-1.22323e-05      12.6444      134.231 
-1.22261e-05      6.20734      26.8098 
-0.000125621      13.9949     -132.973 
-0.000193722      10.6724     -123.689 
1.21403e-05      7.40083     -160.588 
-3.48808e-05      2.45570      149.682 
-6.68138e-05      12.4901      133.897 
1.21343e-05      8.52570      77.3974 
-3.27495e-05      9.63512     -123.655 
