! Center RA: 12 21 31.69052,  Dec: +28 13 58.50011 (2000.0)
! Established model.
! Flux (Jy) Radius (mas)  Theta (deg)  Major FWHM (mas)  Axial ratio   Phi (deg) T \
! Freq (Hz)     SpecIndex
 0.0714129    0.0720098     -33.5245 
 0.0163411    0.0562440     -45.0000 
 0.0323971    0.0848966     -45.0000 
 0.0154481    0.0446338     -26.9958 
0.00732390    0.0202604      0.00000 
 0.0108280     0.240977      94.8229 
0.00177341     0.260423      94.4620 
0.000970608     0.243395      99.4042 
0.000356089     0.223431      100.253 
0.000227213     0.280627      94.1402 
0.000224415     0.319665      90.0000 
0.000223384    0.0397705      0.00000 
0.00101055     0.204262      101.227 
0.000648275     0.339925      90.0000 
0.000806818     0.360186      90.0000 
0.000689012     0.184432      102.453 
0.000807174    0.0720098     -56.4755 
0.00138761     0.596781      103.599 
0.00106953     0.379696      90.0000 
0.000959211    0.0896014     -63.6495 
0.000738953     0.141777      98.2159 
0.000189097     0.164706      103.973 
0.00179349     0.621223      104.909 
0.000905473     0.107434     -68.2729 
0.00226078     0.360755      86.7805 
0.00272698     0.121759      99.5784 
0.00150466     0.121759     -80.4216 
0.00276707     0.645453      106.202 
0.00101384    0.0633577      71.3505 
0.00180247     0.380236      86.9456 
0.00367339    0.0998015      90.0000 
0.00296408     0.141777     -81.7841 
0.00193864      1.11429      111.035 
0.00428650      1.12172      112.001 
0.00318701     0.670704      107.381 
0.00120219     0.362375      83.6991 
0.00323003     0.161111     -82.7757 
0.00206917     0.381773      84.0205 
0.000396873    0.0562440      45.0000 
0.000744608     0.145849      105.824 
0.000500728    0.0600310      0.00000 
0.00122979      1.12917      112.919 
9.94647e-05     0.189835      108.435 
0.00111719     0.695981      108.415 
0.000248558     0.365154      80.5377 
0.000372249     0.170734      110.586 
0.000863942     0.384412      81.0157 
0.000271967     0.164706     -76.0271 
8.98736e-05    0.0828082     -14.1622 
0.000104361     0.869143      113.023 
0.000204952     0.824622      112.808 
0.000199976     0.798447      112.081 
9.85992e-05     0.966811      114.437 
0.000385659     0.401929      95.6787 
9.74054e-05     0.772836      111.233 
0.000372993     0.993009      115.035 
9.50897e-05     0.746703      110.347 
0.000361199     0.721011      109.453 
0.000784814     0.380236      93.0544 
0.000351264    0.0828082      75.8378 
0.000347707      1.01966      115.547 
0.000503995      1.13322      110.667 
0.000410203      2.46746      109.895 
0.000404418     0.664933      105.714 
8.28458e-05     0.400469      92.8999 
8.27271e-05      1.00142      116.047 
0.000390755      1.02856      116.565 
0.000543870     0.181229     -83.5812 
0.000450835    0.0633577      18.6495 
0.000456951      1.15150      110.324 
0.000459636      2.47443      110.336 
0.000155946     0.399956      90.0000 
0.000443172     0.640096      104.460 
7.38084e-05      1.01048      117.079 
7.34331e-05      2.49980      110.616 
0.000753406     0.184432     -77.5470 
0.000285231      2.48155      110.775 
0.000548739      1.03778      117.566 
0.000280897      1.15869      111.264 
0.000327125     0.612198      101.310 
0.000205388      2.50673      111.034 
0.000309358     0.635505      102.756 
0.000263295    0.0828082      14.1622 
6.79987e-05     0.400469      87.1001 
0.00106702      1.17760      110.906 
0.000133183      2.48853      111.195 
0.000320155      2.51408      111.465 
0.000466964    0.0802914      0.00000 
0.000707723      1.04695      118.512 
0.000997494     0.204262     -78.7726 
0.000362101      2.52156      111.893 
0.00131033     0.608549      99.4391 
0.000318012     0.247514      104.036 
0.000448195      2.52890      112.303 
0.000313288     0.388092      78.0600 
0.000598461      1.05677      119.477 
0.000652195      2.53666      112.727 
0.000250617     0.126477     -18.3275 
0.000104651     0.369026      77.4333 
5.10826e-05      1.18470      111.788 
0.000554690      1.20353      111.430 
0.000449419     0.141777     -8.21587 
4.91382e-05     0.583147      95.9087 
0.000184480     0.392593      75.2732 
0.000233817     0.373757      74.5128 
0.000229420     0.223431     -79.7468 
9.20693e-05     0.253192      108.489 
0.000828909      2.54455      113.148 
0.000550152      1.08441      119.883 
0.000211257     0.605655      97.6181 
8.66623e-05     0.278155      111.026 
0.00139013     0.227911     -74.7283 
0.000247263     0.379669      71.5651 
0.000327291     0.727741      110.902 
4.16983e-05     0.286050      114.817 
0.000496089      1.21108      112.322 
0.000236938     0.398226      72.4528 
0.000120536      2.52663      113.321 
0.000119086     0.295127      118.390 
0.000431187     0.145849     -15.8239 
0.000153529     0.581411      93.9223 
0.000151355      2.49067      124.207 
0.000166007      1.09426      120.768 
3.78649e-05     0.304887      121.617 
0.000174574      2.55229      113.550 
0.000348976     0.386554      68.7149 
7.34801e-05     0.344213      125.596 
7.13879e-05     0.404795      69.7174 
0.000213264      1.11107      120.254 
0.000204530     0.559789      90.0000 
0.000954834      2.46315      124.073 
0.000139061     0.355922      128.150 
0.000838749     0.247514     -75.9638 
0.000136176      1.21892      113.203 
0.000295763      2.52321      107.998 
0.00119000     0.761740      113.206 
0.000255979      1.12141      121.148 
0.000129248     0.368782      130.627 
0.000124730      2.56045      113.966 
0.000517986      1.23688      112.847 
0.000448880     0.394056      66.0707 
0.000429240     0.164706     -13.9729 
0.000231306     0.580403      92.0005 
0.000177943     0.381773      132.849 
9.00763e-05      1.13880      120.621 
5.87378e-05     0.735213      112.377 
0.000192297      2.56875      114.379 
0.000375784      1.14925      121.490 
2.79063e-05     0.395830      135.000 
0.000207562      4.23796      123.839 
0.000280305     0.424483      135.000 
0.000258652     0.375627      64.8172 
0.000125673     0.560155      87.9272 
0.000436535      4.24928      124.066 
0.000202336      2.57686      114.774 
9.57928e-05      1.24458      113.675 
0.000153993      2.54877      108.291 
0.000468979     0.384685      62.0853 
0.000310812      1.17674      121.785 
0.000470342     0.580049      90.0000 
9.10865e-05      2.44640      124.338 
0.000276548     0.438496      136.803 
0.000110678      1.26317      113.306 
2.22588e-05      2.97004      102.446 
0.000312886     0.184432     -12.4530 
0.000320416      2.98909      102.365 
0.000165897      2.42295      131.321 
0.000434699      2.43503      123.945 
8.23822e-05      1.27132      114.144 
0.000224991      1.20401      122.115 
0.000907557      4.23251      124.220 
9.55616e-05      1.27974      114.972 
0.000156267      2.58542      115.182 
0.000129955      2.40834      131.628 
0.000211834     0.453478      138.555 
0.000149788      2.55521      108.722 
7.19334e-05      1.28810      115.759 
0.000307757     0.394577      59.4847 
8.79433e-05      3.01326      102.659 
0.000497682      2.39542      131.279 
5.09435e-05      1.29703      116.565 
1.71684e-05      3.00889      102.282 
0.000110969      1.21490      122.924 
0.000249980     0.204262     -11.2274 
0.000338666      3.03303      102.575 
6.46075e-05      1.32424      116.957 
1.62497e-05     0.424884      138.795 
0.000310296     0.440329      140.532 
0.000172743      1.24253      123.172 
3.09974e-05      1.33320      117.704 
4.43840e-05      1.19830      104.506 
2.99391e-05      1.34274      118.470 
0.000163957      2.59410      115.587 
5.72978e-05      1.35251      119.224 
1.44517e-05     0.412159      60.9150 
5.96339e-05     0.421988      58.5994 
0.000137475      2.56153      109.136 
3.86370e-05      2.92612      102.229 
4.09498e-05      1.36215      119.941 
0.000198683     0.404832      57.1052 
0.000119160      1.19339      103.564 
0.000243662      2.40733      123.829 
2.64082e-05      1.37237      120.674 
2.58986e-05      1.27058      123.437 
1.29322e-05      1.38919      120.263 
6.24548e-05      1.39951      120.980 
0.000191513      3.05208      102.495 
0.000126122     0.223431     -10.2532 
4.79633e-05      1.28186      124.192 
6.99630e-05      1.40965      121.659 
6.21383e-05     0.580403      87.9995 
7.15929e-05     0.234065      69.9384 
2.23197e-05      1.18753      122.616 
0.000151058     0.456152      142.150 
5.07674e-05      2.90706      102.311 
3.32637e-05      1.42039      122.355 
3.23637e-05      1.43092      123.015 
4.03704e-05      1.18880      102.615 
0.000156333      2.38210      130.913 
4.17059e-05      1.15956      122.312 
0.000106331     0.753987      111.791 
4.14072e-05      1.44795      122.578 
1.04757e-05      1.37659      125.527 
5.87510e-05     0.432889      56.3099 
4.83260e-05     0.416183      54.7625 
8.65043e-05     0.220795     -5.26495 
2.01145e-05      1.40425      125.737 
4.83487e-05      2.61239      115.395 
5.85908e-05      1.45896      123.249 
7.55488e-05      3.07186      102.413 
2.89116e-05      1.13203      122.026 
9.55327e-06      1.43209      125.897 
2.75363e-05      1.44407      126.548 
2.75975e-05      1.47017      123.909 
8.97988e-06      1.06689      120.425 
8.93817e-06      1.48640      123.490 
0.000807418      9.50589      12.5146 
0.000289626      1.90353      9.07243 
-0.000876483      9.94556     -136.550 
0.000510210      1.92049      8.38022 
-0.000438723      5.47363      134.261 
-0.000274339      7.95910     -139.589 
-0.000394663      9.90569      178.033 
-0.000433277      6.70024    -0.173254 
0.000137440      8.20430     -56.2329 
0.000753036      5.18782      107.041 
-0.000329305      3.04305      2.64298 
-0.000484215      12.1015      37.8164 
0.000519233      8.37398      11.0139 
-0.000342936      5.29228      122.969 
-0.000368767      7.30311     -125.300 
-0.000244294      11.4601     -48.3232 
-0.000523645      6.70021      0.00000 
0.000402085      8.17620     -56.2720 
0.000566276      13.4407     -43.3124 
0.000559259      9.19976      68.8477 
-0.000408050      6.47053     -161.059 
0.000303944      8.71658     -99.3739 
-0.000179216      8.31754     -23.9751 
-0.000181322      7.97396     -139.679 
-0.000548010      6.21054      46.4344 
0.000171202      10.0031     -49.6215 
0.000351265      11.1825      152.288 
6.18795e-05      2.39707      125.148 
-0.000233619      5.50176      134.260 
6.12530e-05      4.73180     -25.8052 
0.000269843      4.22136      91.3547 
-0.000330406      3.78161      1.81939 
0.000225227      9.49053      12.6605 
0.000231979      2.38546      124.750 
-0.000323553      2.39974      90.0000 
-0.000436091      9.79865      81.0744 
-0.000117484      9.76007     -62.2804 
0.000215693      4.74066     -26.0256 
-0.000213570      3.06243      2.24684 
-0.000264904      8.10988     -66.9128 
0.000317927      9.23926      139.826 
-0.000468451      5.35259     -9.46496 
-0.000317029      1.35252     -51.6232 
0.000272444      1.42121     -166.162 
-0.000114005      5.35583     -9.67084 
0.000265727      6.30037    -0.361677 
5.71122e-05      8.19278     -104.274 
0.000262169      1.00480     -137.421 
-0.000111505      9.90641      177.916 
-5.67681e-05      8.20434     -178.187 
0.000158663      8.13425     -160.766 
0.000210191      9.71704      103.205 
-0.000361059      8.32952     -71.0868 
0.000256638      5.95392     -135.138 
-0.000338726      9.75101     -62.3819 
-0.000357226      7.29142     -125.170 
5.51694e-05      8.24757     -117.435 
0.000253351      8.19780     -104.411 
-0.000257344      8.18476     -178.040 
-0.000256907      7.66506     -76.7283 
0.000107984      10.3418      110.609 
0.000256431      2.84727     -175.965 
0.000205348      2.40214      124.474 
-0.000150970      7.52913     -84.9684 
0.000199572      5.13474     -101.003 
0.000252025      11.1653      152.241 
0.000102565      8.71991     -99.5053 
0.000151380      6.58017      179.824 
-5.28110e-05      5.28129      122.785 
-0.000199382      3.87992     -150.004 
-0.000101853      9.34378     -23.3285 
-0.000149512      9.88691      177.912 
-0.000199453      12.0855      37.8753 
0.000101343      1.98050     -136.643 
0.000149899      10.3347      110.503 
5.16750e-05      8.03996      47.4170 
0.000148730      8.35601      41.8950 
-9.93468e-05      10.6506     -123.124 
5.05772e-05      4.71357     -25.9124 
0.000194364      8.02627      47.5234 
0.000222604      9.47149      12.6864 
-9.62778e-05      11.0810     -35.1516 
9.66485e-05      1.44089     -166.355 
-4.86129e-05      9.12156     -8.57272 
-4.82787e-05      6.43861     -160.777 
-9.50439e-05      9.80169      80.9617 
-7.19781e-05      6.81090      155.541 
4.75314e-05      1.99528     -137.042 
4.68962e-05      9.10804      20.7030 
-0.000225570      10.6542      51.1726 
-0.000518550      10.6700      51.2408 
-0.000204016      4.46035      179.740 
0.000247854      8.02950      47.9280 
0.000347656      3.35438     -16.2781 
0.00242555      13.9536      47.0921 
-0.000371765      9.98031     -147.107 
-4.76847e-05      5.19337      49.6825 
4.63680e-05      9.90305      139.585 
-4.56339e-05      5.20602      49.5187 
-0.000421168      10.1179     -42.9955 
-8.88173e-05      4.09473      169.024 
0.000125861      12.1982      142.059 
0.000167121      9.91848      139.661 
-4.44065e-05      4.47986      179.741 
-0.000152530      5.19119      49.3789 
0.000417940      6.88128     -85.4968 
8.43806e-05      7.56717      102.054 
8.30548e-05      8.01594      48.0355 
0.000249693      9.69085     -112.701 
0.000225713      5.86032      37.6549 
-4.22331e-05      9.98257      178.738 
-0.000189658      3.45888      13.7167 
-0.000158250      4.11851      168.801 
-0.000155806      9.98573     -147.265 
4.11565e-05      6.37759      115.844 
-0.000209120      9.98304      178.622 
-0.000425852      7.30183     -139.109 
-3.98694e-05      4.52038      179.743 
-0.000114773      10.1317     -43.0793 
0.000245850      6.38612      116.002 
-0.000285910      10.3951      23.9524 
0.000106569      7.53898      101.785 
0.000180391      10.2349      144.384 
-0.000369457      8.24907     -125.925 
-0.000174078      10.8992      41.2037 
-0.000341965      9.07495      173.672 
-7.40237e-05      8.38969     -168.448 
-3.73493e-05      4.72010      179.517 
3.67644e-05      5.85732      37.9284 
-0.000419067      8.37058     -168.421 
0.000165583      4.68458      132.754 
-7.04787e-05      4.07558      168.971 
-0.000221056      10.2337      29.1211 
-3.56027e-05      12.1041     -36.7356 
-6.98710e-05      4.75987      179.521 
-0.000180015      6.26741      139.141 
3.54559e-05      12.1915      47.8589 
6.75652e-05      3.34876     -15.9454 
-0.000120879      13.2719     -46.8328 
-0.000163534      11.3817      42.4376 
-3.45168e-05      3.04990     -116.067 
-3.40729e-05      12.1318     -36.7572 
0.000124640      12.1779      47.9296 
-0.000126371      12.1738      37.7938 
6.43886e-05      10.2417      117.064 
-6.44366e-05      4.09864      168.746 
-3.31866e-05      3.04106     -116.559 
-0.000239361      12.0328      132.440 
9.51321e-05      5.75684     -68.6022 
-6.49495e-05      4.78013      179.523 
-8.17974e-05      9.96712      177.817 
3.26467e-05      9.93336      139.734 
5.09616e-05      6.65980      179.658 
-6.16981e-05      10.4867     -162.119 
-0.000200826      5.45651     -85.5832 
-0.000217271      7.15631     -45.2252 
5.76028e-05      10.3228      110.648 
-3.19070e-05      10.1046     -42.9145 
-0.000152325      10.4030      24.0506 
-6.10365e-05      9.98352      178.510 
3.15456e-05      7.74684     -87.6351 
6.13451e-05      9.41294      12.7666 
0.000120895      6.64021      179.825 
-8.88428e-05      9.98737      177.821 
-6.05775e-05      10.0914     -42.6706 
-0.000110614      12.9491     -49.3216 
0.000373241      8.04122      47.6209 
-8.96916e-05      9.09508      173.686 
-0.000114476      4.78001      179.757 
8.80171e-05      4.45562      117.830 
3.04129e-05      6.39503      116.165 
8.66483e-05      3.36824     -15.8507 
0.000198069      9.63814     -84.8811 
-0.000165291      9.29631     -148.191 
5.82257e-05      10.2507      144.447 
-0.000281242      12.1481     -36.7000 
-0.000159616      4.90757      7.96284 
5.79644e-05      7.74606     -87.7793 
-2.98487e-05      12.9898     -49.2447 
0.000282040      9.39769      12.9144 
-0.000108632      10.9762     -50.9156 
0.000179043      5.73059     -68.7169 
-5.58261e-05      10.0638     -42.6642 
-5.67314e-05      11.3673      42.5039 
-2.90325e-05      7.97495     -50.8005 
2.89469e-05      7.50296     -164.221 
2.88679e-05      6.45773      116.881 
-5.68442e-05      9.11522      173.700 
0.000176023      6.88284     -85.3349 
-0.000162206      10.4215      24.0052 
2.86489e-05      10.5005      17.4017 
0.000108590      8.97694     -38.7563 
0.000154555      6.61995      179.825 
5.54135e-05      4.67085      132.572 
-8.10880e-05      10.1308     -43.2412 
-5.48389e-05      4.56654      71.8866 
0.000176331      4.24086      91.3485 
-4.70606e-05      10.0267     -40.7148 
-2.78414e-05      5.62864      135.000 
4.91890e-05      6.51240      117.430 
2.77264e-05      11.4858     -39.2041 
-5.34731e-05      14.1001     -134.597 
5.33027e-05      7.04543      57.1647 
-2.75420e-05      9.64041      89.6432 
-0.000134513      9.09288      173.813 
-0.000126789      8.75890     -169.076 
2.72377e-05      7.48347     -164.179 
7.81663e-05      12.0413     -126.013 
9.11383e-05      10.1409     -118.638 
-5.31761e-05      11.0067      41.6864 
0.000174917      11.4573     -39.1896 
-0.000287289      8.93248      142.643 
-5.32667e-05      9.96640      177.929 
2.69533e-05      4.44619      117.599 
0.000170716      6.52176      117.588 
-5.20067e-05      12.1578      37.8523 
0.000102571      7.74521      30.4059 
-0.000168921      9.64030      89.7636 
-0.000235425      9.11302      173.827 
-0.000324473      11.8380     -120.118 
-0.000187661      10.6852      51.3063 
5.19652e-05      9.63635     -85.0011 
2.65558e-05      12.0532     -126.091 
2.64070e-05      7.76555     -87.7848 
2.63716e-05      3.38702     -15.7606 
-2.62128e-05      4.69667      62.3459 
-7.25706e-05      9.85272     -68.0689 
0.000189698      12.1799      48.0616 
-0.000143319      12.0465      132.511 
2.61370e-05      9.70176     -112.545 
0.000214518      6.24960     -77.4339 
-0.000251592      7.23349     -123.954 
-0.00132941      11.8278     -120.033 
2.60392e-05      6.28633     -99.5230 
-0.000202707      7.28859     -139.229 
-7.33267e-05      4.72605     -61.1601 
-0.000342227      10.2514      29.0660 
-4.96525e-05      10.0501     -42.5793 
0.000165665      12.1000     -138.484 
7.28987e-05      3.38157     -15.4302 
4.98056e-05      9.16489      178.123 
6.84771e-05      8.05489      47.5145 
-0.000209749      10.4476      24.0632 
2.50726e-05      8.52802      10.6791 
9.61526e-05      9.65486     -85.1269 
-0.000108311      9.13242      173.840 
-0.000215911      11.0202      41.7651 
-7.26796e-05      7.19818     -45.1098 
-0.000113842      11.6668     -47.7789 
4.83925e-05      10.0438     -84.6285 
2.47805e-05      6.78826     -149.356 
0.000156461      8.99216     -38.6785 
-2.48411e-05      10.1161     -43.3198 
-2.46788e-05      6.62974     -68.7790 
4.77892e-05      9.97397      138.416 
0.000256434      12.0249     -126.070 
2.45966e-05      8.72941      92.6260 
7.08671e-05      9.13856     -155.569 
6.81393e-05      9.69430     -112.438 
0.000110864      10.1325     -118.790 
6.82607e-05      7.03447      57.3033 
0.000110269      10.0225     -84.7333 
6.85035e-05      11.0366     -125.190 
-4.74367e-05      9.15256      173.853 
-4.72819e-05      12.1453      37.7769 
-4.57609e-05      4.55366      71.5651 
-2.38266e-05      13.0281     -51.1067 
-8.77990e-05      5.47596     -85.5989 
8.30029e-05      9.18580      178.006 
