! Center RA: 12 21 31.69052,  Dec: +28 13 58.50011 (2000.0)
! Established model.
! Flux (Jy) Radius (mas)  Theta (deg)  Major FWHM (mas)  Axial ratio   Phi (deg) T \
! Freq (Hz)     SpecIndex
 0.0832084    0.0202604     -90.0000 
0.00967168      0.00000      0.00000 
 0.0127155     0.262662      81.2912 
0.00309750    0.0446338      116.996 
0.00817499    0.0633577      108.650 
 0.0235060     0.260423      85.5380 
 0.0329507    0.0397705     -90.0000 
0.000495647    0.0828082      104.162 
 0.0172899    0.0802914      90.0000 
 0.0196620    0.0998015      90.0000 
0.00836000     0.259634      90.0000 
0.00154919     0.240977      85.1771 
 0.0138015     0.240124      90.0000 
 0.0134244     0.101837      78.5245 
0.00430458     0.219863      90.0000 
0.00298007     0.362375      96.3009 
0.000708723    0.0828082      75.8378 
0.000810532    0.0633577      71.3505 
0.000331529    0.0202604      90.0000 
0.00310757     0.381773      95.9795 
0.000164710     0.200353      90.0000 
0.00130602     0.400469      92.8999 
0.00106407    0.0202604      0.00000 
0.00150674     0.140322      90.0000 
0.000790991     0.420705      92.7603 
0.000956702     0.120062      90.0000 
0.000317932     0.459987      90.0000 
0.00238013    0.0286526     -45.0000 
0.000914203     0.480248      90.0000 
0.000940146     0.499758      90.0000 
0.000646216     0.121759      80.4216 
0.00485276    0.0446338     -63.0042 
0.00180743     0.520018      90.0000 
0.00171968     0.667840      98.5944 
0.00141858     0.690371      100.015 
0.00442892     0.401929      95.6787 
0.000532282     0.240977      94.8229 
0.000446029     0.520413      92.2312 
0.000210207     0.540658      92.1476 
0.000156761     0.320306      93.6266 
0.00115478     0.279894      90.0000 
0.00149202     0.541740      94.2100 
0.000400224     0.562998      96.1209 
0.000139024     0.583147      95.9087 
0.000273264     0.624998      97.3810 
0.000509989     0.201375      95.7743 
0.00267882     0.521537      94.3734 
0.00188790     0.687137      98.3513 
0.000107133     0.220795      95.2649 
0.00316310     0.543603      96.3402 
0.00284458     0.707189      98.1129 
9.91847e-05     0.181229      96.4188 
0.00308573    0.0633577     -71.3505 
0.00126306     0.380236      93.0544 
0.000984627     0.161111      97.2243 
0.00241068    0.0720098     -56.4755 
0.00128782     0.727252      97.8876 
6.01927e-05     0.260423      94.4620 
0.000226704     0.280627      94.1402 
0.000252905     0.824622      104.062 
0.000752946     0.704700      96.5423 
5.36491e-05     0.300838      93.8616 
0.000358090     0.829578      105.369 
0.000595147     0.684575      96.7355 
0.000102570     0.262662      98.7088 
9.89727e-05     0.282706      98.0871 
0.000625591    0.0896014      63.6495 
9.62581e-05     0.278155      68.9736 
0.000184808     0.184432      102.453 
0.00107334     0.854601      106.319 
9.15976e-05     0.286260      102.105 
4.62146e-05     0.585580      97.8809 
4.56060e-05     0.268467      63.4349 
0.000210258     0.278118      59.6991 
0.000169594     0.588572      99.7625 
0.000907105     0.849131      105.006 
4.34344e-05     0.306099      101.310 
0.000294745     0.164706      103.973 
0.000121844     0.291183      106.006 
4.14510e-05     0.608549      99.4391 
7.94860e-05     0.541740      85.7900 
0.00120784    0.0828082     -75.8378 
4.00287e-05     0.310708      104.976 
0.000223126     0.612198      101.310 
0.00118719    0.0720098      56.4755 
0.000252949     0.288454      56.3513 
0.000109732     0.189835      108.435 
7.49430e-05     0.543603      83.6598 
7.45654e-05     0.297155      109.625 
7.06879e-05     0.461703      94.9415 
0.000428291     0.441522      95.1680 
0.000235169     0.316312      108.392 
0.000138414     0.546212      81.5471 
6.96562e-05     0.422095      95.4065 
0.000404745     0.616492      103.157 
0.000427980     0.170734      110.586 
0.000295250     0.300155      53.1301 
6.37519e-05     0.549419      79.5342 
0.000459387    0.0720098      33.5245 
3.18623e-05     0.568616      79.8913 
0.000481277     0.873342      105.959 
0.000148007     0.323277      111.801 
0.000229025     0.572519      77.8948 
0.000159338     0.341468      110.586 
0.000157833     0.621223      104.909 
5.19468e-05     0.463888      97.4354 
0.000143355     0.178866      116.673 
7.74603e-05     0.577108      75.9276 
5.09065e-05     0.312731      50.1592 
0.000644504     0.740145      108.931 
0.000344569     0.394056      113.929 
0.000310023     0.304558      66.7829 
0.000105762     0.759338      108.435 
0.000225478     0.375627      115.183 
6.82273e-05     0.101837      101.476 
3.39218e-05     0.765732      109.820 
6.60053e-05    0.0286526      45.0000 
3.32689e-05     0.810060      105.749 
8.06673e-05     0.121759      99.5784 
0.000392719     0.145849      105.824 
0.000184975     0.721011      109.453 
0.000223899     0.844290      103.727 
0.000179210     0.313099      63.3735 
6.09616e-05     0.349107      113.700 
0.000114759     0.702644      109.983 
5.59804e-05     0.331336      115.056 
0.000114134     0.863255      103.420 
8.34927e-05     0.483985      97.1250 
2.79567e-05     0.402700      116.565 
5.45326e-05     0.746703      110.347 
0.000211971     0.887605      104.342 
2.75939e-05     0.304887      58.3833 
5.31566e-05     0.304558      113.217 
0.000103628     0.772836      111.233 
5.31141e-05     0.322315      60.2717 
2.64328e-05     0.420241      115.375 
0.000216336     0.676788      108.957 
0.000179478     0.481892      94.7340 
0.000120925     0.315980      55.2532 
0.000141564     0.429314      117.819 
0.000259834     0.907248      104.025 
4.91593e-05     0.286050      114.817 
0.000164635     0.632861      71.5436 
0.000115632     0.798447      112.081 
6.57007e-05     0.651397      107.913 
8.61639e-05     0.313099      116.626 
2.23561e-05     0.460433      92.5220 
0.000120679     0.327950      52.3435 
4.25665e-05     0.447333      116.608 
0.000332979     0.931206      104.943 
0.000183007     0.639305      69.8847 
2.16179e-05     0.197181      114.029 
0.000142516     0.824622      112.808 
4.01274e-05     0.700111      90.0000 
0.000111441     0.456404      118.798 
0.000110427     0.205897      118.994 
3.76589e-05     0.340058      118.035 
0.000102788    0.0562440      45.0000 
0.000171214     0.832685      114.094 
0.000101550     0.700404      88.3424 
3.57362e-05     0.646553      68.1986 
5.14015e-05     0.480675      92.4157 
6.94899e-05     0.627787      67.5118 
0.000159360     0.340220      49.7414 
0.000305848    0.0802914     -90.0000 
3.42134e-05     0.322315      119.728 
8.40552e-05     0.950796      104.628 
3.31227e-05     0.474259      117.619 
7.67842e-05     0.683639      110.563 
6.38838e-05     0.216445      123.690 
0.000249934     0.635505      65.8864 
9.34693e-05     0.955909      105.760 
5.98050e-05     0.350038      120.964 
0.000101987     0.483985      119.745 
1.55965e-05     0.460433      87.4780 
1.54239e-05     0.841160      115.353 
5.89357e-05     0.858831      114.796 
5.69518e-05     0.701240      86.7487 
8.34235e-05     0.244605      125.006 
0.000212877     0.975424      105.437 
0.000104982     0.867194      115.966 
0.000143124     0.353651      47.2356 
7.37947e-05     0.690733      112.079 
0.000108524     0.501018      118.638 
0.000104519     0.360880      123.723 
2.48927e-05     0.412220      75.9891 
0.000366476    0.0998015     -90.0000 
6.05348e-05     0.702680      85.0992 
4.75849e-05     0.480675      87.5843 
3.59353e-05     0.256296      128.581 
0.000110321     0.876255      117.158 
7.73919e-05     0.999726      106.258 
0.000231031     0.644048      64.2410 
0.000544454      1.37346      106.049 
0.000110189      2.02490      113.268 
1.11112e-05     0.240790      131.589 
5.09278e-05     0.704700      83.4577 
0.000137510      1.23688      112.847 
5.07528e-05     0.269397      131.952 
0.000134004     0.698601      113.619 
1.05727e-05     0.493955      121.710 
1.04323e-05     0.481892      85.2660 
0.000138941     0.510656      120.559 
0.000845364      2.04284      113.052 
0.000294492     0.353651      42.7644 
3.75406e-05     0.500168      87.6785 
0.000154468     0.994244      105.138 
6.14334e-05     0.372066      126.223 
8.60903e-05     0.885686      118.324 
9.28823e-06     0.867991      104.673 
3.53338e-05     0.269397      138.048 
3.53862e-05     0.707189      81.8871 
0.000169613      1.24458      113.675 
4.08660e-05      1.24172      104.918 
3.96894e-05     0.501338      85.4500 
0.000259206     0.120062     -90.0000 
3.90349e-05     0.727252      82.1124 
0.000126584      1.50512      109.392 
8.09586e-06     0.283342      135.000 
2.94075e-05     0.284207      140.679 
0.000154821     0.355922      128.150 
9.46871e-05      1.23684      104.045 
7.87219e-05     0.895107      119.423 
4.08191e-05     0.730308      80.5377 
0.000100019     0.706962      115.123 
0.000174915     0.521249      122.478 
3.89158e-05     0.503350      83.1504 
3.59133e-05     0.300155      143.130 
4.11157e-05     0.733911      78.9773 
6.64979e-05     0.617068      65.1178 
0.000278354      1.52425      109.140 
1.65906e-05     0.506166      80.8728 
5.69585e-06     0.653108      62.6400 
6.40816e-05     0.933005      120.980 
2.58080e-05     0.737890      77.4902 
4.45753e-05      1.25286      114.523 
9.79403e-05      1.01381      104.839 
7.95055e-05      1.21792      104.267 
3.62049e-05     0.315980      145.253 
3.60069e-05     0.526180      81.2228 
0.000285070     0.121759     -80.4216 
1.86253e-05     0.680086      114.303 
1.42862e-05     0.742542      75.9638 
6.00745e-05     0.753177      73.0274 
8.58657e-05      1.24380      115.746 
5.76972e-05     0.625863      63.4349 
5.84989e-05     0.688672      115.839 
7.11831e-05     0.943196      121.996 
3.32665e-05     0.368782      40.6266 
3.60508e-05     0.529508      79.1359 
1.76251e-05     0.332828      147.241 
6.20428e-05     0.724743      62.0287 
1.07418e-05     0.753070      79.2611 
5.58958e-05     0.368782      130.627 
0.000113485     0.532403      124.317 
3.22514e-05     0.756949      77.8100 
0.000108260     0.355922      38.1504 
7.15626e-05      1.21309      103.340 
5.37829e-05     0.715464      116.538 
7.18697e-05     0.340058      151.965 
4.46517e-05     0.563425      73.5200 
4.87459e-05      1.00899      103.768 
2.70124e-06     0.569504      71.5651 
5.14527e-05     0.954085      123.028 
1.89696e-05     0.788842      81.2456 
3.75440e-05     0.353651      132.764 
1.68537e-05      1.26140      115.361 
4.29106e-05     0.792179      79.7971 
9.57050e-06     0.558204      75.4407 
1.19105e-05     0.635182      61.8001 
1.83886e-05      1.20858      102.405 
1.37518e-05      1.25240      116.550 
7.26047e-06     0.553458      77.4712 
1.55400e-06     0.367178      135.000 
4.22985e-06     0.771858      73.4501 
8.66062e-06     0.982133      123.374 
-7.17887e-05     0.181229      173.581 
6.69022e-06      1.23546      119.072 
2.24174e-05     0.126477     -71.6725 
5.23797e-06      1.02868      103.499 
2.59717e-06     0.965278      124.036 
2.56138e-06     0.644631      60.2717 
5.08343e-06     0.331336      154.944 
1.27456e-06      2.01699      112.740 
-0.000386060      10.7204     -45.6040 
-0.000259562      8.45254     -84.9783 
-0.000232792      11.3263     -40.1278 
-0.000205614      12.0908     -137.681 
0.000123791      9.72988      123.005 
-0.000264374      8.95939     -106.735 
0.000192017      5.47197      36.8275 
0.000216560      11.2250      116.339 
-0.000143580      9.29676     -123.861 
-2.59181e-05      8.76223      137.499 
0.000204448      11.5882     -139.409 
-2.57187e-05      13.9899      133.783 
-0.000119953      8.97652     -149.319 
9.59939e-05      8.11769      174.489 
-0.000183392      6.87193     -101.246 
9.56093e-05      9.74688      122.940 
0.000225995      8.85853     -50.9582 
-9.37039e-05      8.74731      137.409 
-9.34432e-05      4.62932      29.2242 
-0.000200266      11.3931      118.635 
-0.000134518      10.4439      36.8246 
-0.000157667      10.1521     -27.0707 
-4.84987e-05      13.9752      133.840 
0.000157159      10.4030      24.0506 
-0.000152241      5.93343      107.456 
-0.000111806      9.01290     -17.8315 
0.000113262      6.69198     -164.221 
-0.000174196      9.17691     -112.150 
0.000105291      8.11584      174.626 
6.91054e-05      6.10651     -81.5274 
-6.69941e-05      4.61065      108.199 
-0.000129110      7.50612     -2.29175 
0.000129149      9.12960      166.574 
8.69514e-05      5.36307     -171.203 
-0.000170013      9.82043     -120.743 
-8.55207e-05      4.33331      160.307 
0.000128120      10.7562     -34.1612 
0.000128751      4.18619     -67.2316 
8.65548e-05      10.3225     -39.8893 
-0.000127345      13.9612      133.780 
6.51635e-05      7.96816     -125.088 
-0.000105593      2.90491      172.489 
-0.000147105      12.1058     -137.746 
0.000126450      6.75123     -146.971 
-0.000126197      11.3239     -40.2723 
-0.000105732      10.9984     -50.6064 
8.36165e-05      3.73320     -150.828 
4.36972e-05      2.22488      54.8734 
6.35535e-05      1.89151     -109.779 
8.28145e-05      8.33620     -18.1740 
-0.000103561      9.20782     -44.0326 
-0.000124105      8.29197      142.741 
0.000102185      9.66781     -111.099 
-8.21558e-05      12.9317      128.216 
-2.16465e-05      10.8911      59.6666 
-6.12481e-05      10.2898      124.308 
8.14635e-05      6.80850     -2.86177 
4.16438e-05      9.23614     -80.1482 
8.10723e-05      12.9040      46.7578 
-8.06532e-05      10.9086      59.7203 
0.000187662      11.2993      146.112 
-2.09460e-05      10.2811      98.0514 
4.09237e-05      12.2254     -51.4418 
-4.10139e-05      4.14302     -162.002 
4.07483e-05      3.50800      12.8412 
6.07568e-05      10.0276     -135.725 
-6.01809e-05      11.6870      50.2071 
4.05032e-05      14.1136     -134.886 
-4.03356e-05      9.75406     -65.2744 
-4.03732e-05      10.1993     -147.899 
6.00638e-05      7.28142     -54.3903 
-5.95342e-05      8.87758      9.33493 
-4.03398e-05      3.26328      161.790 
4.01887e-05      11.2337      116.428 
2.04360e-05      2.10767      170.719 
4.00213e-05      2.22997      55.5987 
4.77726e-05      9.58205     -106.239 
2.03338e-05      9.68766     -126.775 
-6.63927e-05      8.29876     -145.507 
2.02101e-05      8.95533     -122.413 
-2.02191e-05      4.83853      46.6778 
-3.95160e-05      10.2590      97.9547 
-3.95445e-05      9.30806     -123.964 
3.95028e-05      9.29061      161.293 
3.92573e-05      9.20006     -137.291 
3.92240e-05      9.54388      47.8872 
1.99023e-05      8.08316     -178.441 
3.90388e-05      10.4215      24.0052 
1.98483e-05      4.76605      12.1149 
0.000122025      12.3742      41.1349 
-1.97544e-05      8.38115     -81.0791 
1.97159e-05      9.58877      119.076 
1.96910e-05      9.05833      123.200 
1.96182e-05      10.1400     -16.1469 
1.95935e-05      1.49876     -71.3111 
1.95818e-05      9.68420     -126.940 
-1.94882e-05      9.29825     -160.786 
1.94730e-05      10.3444     -106.859 
1.93612e-05      9.57661     -106.127 
1.92705e-05      8.64300      164.294 
0.000134394      12.3895      41.0733 
0.000268035      9.20174      104.219 
-0.000161813      10.2561      124.031 
-0.000214504      9.20894     -43.6827 
0.000256946      11.0029      115.632 
8.27040e-05      8.32143     -42.8586 
0.000141103      6.59157      156.391 
4.23309e-05      9.80632      70.0869 
0.000128936      12.5699     -48.6764 
-0.000163609      13.0881      129.358 
0.000234019      6.92991     -135.465 
-0.000113590      8.48615      2.15879 
5.95826e-05      9.76332     -10.5041 
2.03609e-05      10.8767      114.210 
0.000199407      10.1962     -13.8470 
7.34419e-05      9.04381      57.6444 
3.90009e-05      9.79944      70.1983 
5.55017e-05      3.91467      108.161 
-1.97183e-05      10.2905      96.6959 
0.000106138      11.3330      146.226 
9.59400e-05      9.53451     -102.726 
3.74014e-05      10.8499      114.156 
3.21587e-05      9.16937      149.744 
8.66419e-05      8.12548      2.11698 
8.86518e-05      10.7770      143.831 
-3.61666e-05      12.2264      54.3863 
-3.72533e-05      11.9274      125.583 
0.000163853      14.3826     -44.8309 
0.000142708      6.71018     -167.083 
0.000250789      13.4447     -41.5632 
0.000162846      11.0345     -112.149 
-9.97124e-05      6.26298     -19.5943 
3.63970e-05      4.59481      110.646 
6.48184e-05      8.33472     -42.9569 
6.60196e-05      7.27637     -142.597 
7.91353e-05      6.51441      108.433 
0.000112380      9.18623      149.805 
-5.12015e-05      10.2703      96.7091 
0.000159694      9.81850      70.2384 
0.000128377      8.38316     -106.923 
3.52939e-05      7.58483     -177.885 
0.000200344      9.78324     -10.4825 
-7.72449e-05      6.59192     -19.8644 
-0.000178641      10.4017      130.242 
-0.000109701      9.75704      21.1476 
0.000105874      8.94475      62.8631 
-3.41142e-05      9.19076      87.2577 
1.76161e-05      8.34956     -42.8622 
-0.000133982      11.9156      125.504 
-4.82301e-05      10.1102      132.112 
0.000105441      10.2266      151.882 
-0.000136716      10.5438     -156.646 
3.32859e-05      8.25777      25.3868 
-0.000185157      9.29676     -146.139 
1.69824e-05      10.6813      110.268 
-3.26387e-05      9.50293      1.44793 
-3.17687e-05      2.97164      5.01236 
4.63119e-05      9.08139     -54.1376 
9.86868e-05      9.71008      147.619 
0.000111482      4.60199      110.882 
0.000104795      6.17501      110.078 
9.00399e-05      3.70431     -151.639 
0.000122453      11.1386     -123.205 
1.67574e-05      10.5054     -20.5048 
8.45809e-05      10.2047      30.6364 
-3.25979e-05      5.20100      35.7654 
-9.14648e-05      11.3283      134.498 
1.65463e-05      10.8417      114.058 
-0.000203099      8.48543      2.02714 
0.000129692      7.60507     -177.891 
7.04488e-05      9.47244      63.0046 
-0.000175771      10.3030     -173.648 
-0.000126781      8.14620      140.877 
-4.67003e-05      6.20976      32.1037 
-5.95683e-05      10.4447     -149.507 
-5.92117e-05      10.3518     -100.462 
1.61618e-05      8.98082     -108.841 
1.61145e-05      10.2286      30.4253 
-8.85949e-05      10.9638     -130.634 
1.59748e-05      8.89900     -161.117 
-4.40223e-05      9.63854     -139.968 
7.39216e-05      9.62141     -101.148 
8.51167e-05      10.5125     -20.6082 
1.57343e-05      10.7606      143.767 
8.47219e-05      9.72175     -75.2204 
5.69452e-05      3.93000      4.08406 
-0.000136665      10.7490      130.774 
-7.36373e-05      12.3886      135.133 
1.56212e-05      8.73172      13.2397 
-2.97093e-05      9.57329     -40.6802 
3.89019e-05      3.90840      107.878 
4.04852e-05      2.61704      80.3270 
1.53978e-05      3.95926     -71.7539 
-2.89938e-05      5.72724      138.963 
2.85936e-05      7.65780     -21.6075 
-2.88580e-05      12.4897      54.1202 
-0.000157114      9.23707     -43.6834 
2.84423e-05      10.2810      74.7750 
4.30623e-05      8.24787      25.5696 
0.000120257      10.7722      143.683 
0.000159663      11.3161      146.169 
-0.000175408      9.26400     -88.2687 
-1.48953e-05      10.2290      124.001 
0.000104557      8.87984     -161.075 
4.14884e-05      8.74700      13.0849 
2.82271e-05      10.8684      114.112 
2.89114e-05      8.74181      46.2973 
1.47116e-05      9.05466      57.5361 
1.46339e-05      10.7885      143.747 
5.96159e-05      7.23346     -6.98937 
2.85938e-05      8.50121      151.625 
-6.33223e-05      5.21684      35.6402 
-0.000145561      9.79699     -162.044 
0.000160337      9.84045      146.017 
7.54410e-05      3.95319     -72.0225 
-2.80434e-05      7.33639      142.756 
-5.20602e-05      9.35203     -136.645 
4.10728e-05      12.2757      123.638 
-2.74787e-05      9.52270      1.32298 
1.43625e-05      10.6743      110.166 
-8.70843e-05      6.23280      31.7517 
-9.36920e-05      10.1471      92.1445 
