! Center RA: 12 21 31.69052,  Dec: +28 13 58.50011 (2000.0)
! Established model.
! Flux (Jy) Radius (mas)  Theta (deg)  Major FWHM (mas)  Axial ratio   Phi (deg) T \
! Freq (Hz)     SpecIndex
 0.0851600    0.0202604      180.000 
 0.0520833      0.00000      0.00000 
 0.0116611    0.0286526      135.000 
0.00930582    0.0202604      90.0000 
 0.0295065     0.430710      111.783 
 0.0150574     0.457182      113.199 
0.00217017    0.0828082      75.8378 
0.00455082     0.325253      100.636 
0.00828816     0.101837      78.5245 
 0.0229819    0.0286526     -135.000 
0.00573993     0.322129      97.0919 
0.00938805     0.465536      115.491 
 0.0132905     0.120062      90.0000 
 0.0107710     0.302778      97.5477 
0.00436311     0.449587      110.825 
0.00102099     0.121759      99.5784 
0.00916607     0.141777      98.2159 
0.00495621     0.306099      101.310 
0.000840554     0.282706      98.0871 
0.00346276     0.467874      109.975 
0.00620329     0.286260      102.105 
0.00139294     0.443026      108.466 
0.000346311     0.329594      104.100 
0.00352926     0.310708      104.976 
0.00441606     0.140322      90.0000 
0.00221709     0.461573      107.699 
0.000293690    0.0446338      63.0042 
0.00326157     0.480914      106.965 
0.00222269    0.0286526      45.0000 
0.00919536     0.161111      97.2243 
0.000268268     0.438632      114.241 
0.000513011     0.447333      116.608 
0.000255213    0.0562440      45.0000 
0.00118999     0.429314      117.819 
0.00255233     0.500328      106.288 
0.00254384    0.0896014      63.6495 
0.00204656     0.181229      96.4188 
0.000237219     0.266484      103.019 
0.00356370     0.772836      111.233 
0.000864713    0.0202604     -90.0000 
0.00229514     0.438758      120.073 
0.00240127     0.524694      107.735 
0.00511773    0.0446338     -116.996 
0.000941126     0.791053      110.721 
0.00358182    0.0848966      45.0000 
0.000366657     0.544027      107.085 
0.000360060     0.835434      111.056 
0.000433143     0.746703      110.347 
0.000532832     0.550320      109.102 
0.00182999     0.854373      110.568 
0.00370961     0.727741      110.902 
0.000679014     0.569504      108.435 
0.000169412     0.342244      96.6731 
0.000802356     0.360755      93.2195 
0.00248766     0.449253      122.310 
0.000917429     0.683639      110.563 
0.00309681     0.594563      109.693 
0.00271001     0.873371      110.101 
0.000734131     0.380236      93.0544 
0.00716946    0.0633577     -108.650 
0.000283031     0.223431      100.253 
0.000729279     0.262662      98.7088 
0.000140636     0.495028      104.036 
0.00101144     0.339925      90.0000 
0.00133452     0.443806      97.7739 
0.00233529     0.620320      110.759 
0.00123217     0.243395      99.4042 
0.000738380     0.476838      122.990 
0.00167746     0.891718      109.670 
0.00176821     0.488166      124.985 
0.00150279     0.898473      110.842 
0.000189606     0.340529      86.5891 
0.000628386     0.459977      124.364 
0.00188812     0.320306      86.3734 
0.00144624     0.910821      109.241 
0.00131611     0.441522      95.1680 
0.00201273    0.0896014      26.3505 
0.00171423     0.753987      111.791 
0.000720020     0.463888      97.4354 
0.000483907     0.798447      112.081 
0.000565076     0.929974      108.830 
0.000636598     0.842640      112.294 
0.000320558     0.948461      108.449 
0.000780287     0.500058      126.887 
0.000233491     0.981011      106.578 
0.000954305     0.880267      111.293 
0.000579053     0.999726      106.258 
0.000206685     0.576231      110.346 
0.00152698     0.609116      113.217 
0.000215107     0.471709      126.396 
7.21655e-05     0.861421      111.783 
7.10843e-05     0.420705      92.7603 
0.00116893     0.440193      92.6380 
0.000135918     0.432889      123.690 
0.000136722      1.01919      105.940 
0.000199032     0.322129      82.9081 
0.000517906      1.02494      107.029 
0.00135139    0.0828082     -104.162 
0.000872030     0.101837      11.4755 
0.00133289     0.394577      120.515 
0.00141690     0.824622      112.808 
0.000413863     0.302778      82.4523 
0.000589274      1.04433      106.703 
0.000119770     0.527985      127.261 
0.000389674     0.555796      127.705 
0.000269179     0.604406      124.223 
0.000280167     0.780402      112.620 
0.000429353     0.540492      128.970 
0.000480438      1.05010      107.723 
5.46605e-05     0.512006      128.634 
0.000210815     0.306099      78.6901 
0.000197435     0.461703      94.9415 
5.18270e-05     0.460433      92.5220 
0.000254422      1.29010      97.1167 
0.000933634      1.01381      104.839 
0.000342308     0.989328      104.047 
0.000202077     0.331336      115.056 
0.000432562     0.357396      116.565 
0.000191785      1.03869      105.633 
0.000488030     0.220795      95.2649 
0.000364502      1.06303      106.401 
0.000122196     0.970413      104.326 
0.000225420     0.950796      104.628 
0.000589720     0.591236      113.962 
5.78209e-05      1.08248      106.098 
5.77316e-05     0.219863      90.0000 
0.000169793    0.0828082     -14.1622 
0.000278463     0.384685      117.915 
0.000824202      1.08805      107.085 
0.000785308     0.200353      90.0000 
5.49331e-05    0.0802914      0.00000 
0.000510686    0.0998015      0.00000 
0.000106004    0.0720098     -123.524 
0.000156296     0.936427      106.097 
0.000719647    0.0896014     -116.350 
0.000279897     0.917698      106.434 
0.000346563      1.10744      106.777 
0.000482625      1.27000      97.2300 
0.000142377     0.599425      115.667 
0.000571119     0.120062      0.00000 
0.00136003      1.29277      98.0078 
0.000301900     0.180093      90.0000 
9.20672e-05     0.543641      126.016 
0.000472020      1.09418      108.099 
0.000385168     0.617068      114.882 
0.000851628     0.904347      108.029 
0.000269512     0.404832      122.895 
0.000351261     0.439727      90.0000 
0.000710169     0.140322      0.00000 
0.000254562     0.101837     -101.476 
7.71247e-05     0.805984      113.367 
0.000285738     0.201375      84.2257 
0.000147006     0.100252     -126.784 
3.63957e-05      1.12613      106.491 
0.000107508     0.420705      87.2397 
0.000301335     0.709549      111.464 
7.00675e-05     0.610413      121.580 
3.50458e-05      1.14557      106.203 
0.000421090     0.422095      84.5935 
0.000349708      1.08817      110.422 
6.67745e-05      1.15984      104.998 
3.42039e-05     0.220795      84.7351 
0.000411253     0.832685      114.094 
9.85367e-05      1.16504      105.925 
9.77837e-05     0.116465     -148.973 
9.59522e-05     0.416183      125.237 
0.000247952     0.627763      120.611 
6.51737e-05     0.107434     -111.727 
6.43535e-05     0.223431      79.7468 
0.000327712     0.524894      130.361 
0.000178360     0.120062     -90.0000 
8.49539e-05     0.159832      90.0000 
0.000231014     0.247514      75.9638 
0.000138742     0.690733      112.079 
0.000289208      1.17870      104.753 
0.000784393     0.159832      0.00000 
0.000332494     0.145849     -164.176 
0.000116522      1.18381      105.666 
5.91854e-05      1.31209      97.8891 
0.000193126     0.481892      94.7340 
5.87801e-05     0.404436      81.4640 
0.000310640      1.40070      99.8711 
2.89918e-05     0.621263      123.172 
0.000241401      1.09540      111.415 
0.000312219     0.407936      78.6487 
0.000209673     0.638318      122.177 
5.49586e-05     0.496341      130.094 
0.000181230     0.141777     -81.7841 
2.65865e-05     0.427737      127.372 
0.000218149     0.253192      71.5114 
4.97101e-05     0.538237      132.005 
0.000268796     0.509625      131.837 
0.000220652     0.373757     -74.5128 
0.000146264      2.05542      100.645 
0.000455336      1.42066      99.7310 
0.000141922      1.07726      111.794 
0.000208010     0.654914      121.268 
0.000115042     0.841160      115.353 
0.000204159     0.164706     -166.027 
4.72412e-05     0.480675      92.4157 
0.000178235     0.161111     -82.7757 
6.64947e-05     0.503350      96.8496 
0.000110694     0.278155      68.9736 
0.000178323      2.12452      98.6538 
0.000280767     0.412220      75.9891 
0.000332529      2.05926      101.199 
0.000559165     0.398226     -72.4528 
2.29835e-05     0.822896      115.958 
0.000216667      1.20333      105.406 
0.000335268     0.523357      133.490 
0.000431348      1.08495      112.788 
0.000663629     0.676411      124.148 
9.61594e-05      1.05225      98.7368 
6.16267e-05     0.831621      117.166 
0.000192985      2.14381      98.5754 
0.000407135     0.181229     -173.581 
9.94117e-05     0.164706     -76.0271 
0.000149220     0.501338      94.5500 
0.000204372     0.260038      67.4310 
3.81807e-05     0.849697      116.542 
0.000192344     0.320306     -86.3734 
0.000283750     0.417588      73.2909 
0.000144959      1.78846      100.296 
7.53424e-05      1.04946      97.6840 
0.000364185     0.536971      135.000 
0.000429765      1.78507      99.6801 
5.62505e-05     0.841065      118.394 
0.000145233      1.43990      99.5998 
0.000756976     0.184432     -77.5470 
0.000377814     0.180093      0.00000 
1.83852e-05      2.06329      101.751 
0.000103958      1.08147      93.1820 
0.000245275      2.03938      101.310 
8.53823e-05     0.850886      119.594 
5.16389e-05      2.04345      101.867 
0.000125758     0.286050      65.1829 
0.000508122      2.16693      99.0252 
0.000474822      1.09265      113.731 
4.99852e-05      1.45988      99.4672 
0.000282827      2.20633      112.370 
0.000169186     0.404795     -69.7174 
0.000130971      1.02938      97.8348 
0.000295918     0.526180      98.7772 
0.000353408      1.10079      92.0705 
0.000535578      2.29890      100.532 
1.63886e-05      1.77304      101.053 
4.78337e-05      1.20887      106.331 
6.35622e-05      1.76927      100.409 
0.000122858      1.47986      99.3381 
0.000394904     0.620320      69.2412 
4.71814e-05     0.858942      117.752 
0.000118008     0.423858      70.6669 
3.02967e-05     0.860688      120.724 
0.000165518     0.411820      129.084 
0.000129361      1.71711      104.838 
0.000339580     0.660356      125.099 
0.000515826     0.551483      136.489 
4.44027e-05      1.23409      106.970 
7.32643e-05     0.869143      113.023 
0.000415214      2.46089      109.468 
0.000427339     0.201375     -174.226 
0.000131507     0.404795      69.7174 
9.64789e-05     0.868561      118.934 
1.44166e-05     0.453478      131.445 
0.000306485      2.23211      112.660 
5.51242e-05      1.23993      107.832 
0.000104769     0.268467      63.4349 
0.000151779      1.49912      99.2171 
0.000174644     0.430710     -68.2171 
1.34870e-05     0.523357      136.510 
2.62634e-05     0.538237      137.995 
0.000261826     0.161111      7.22432 
3.86535e-05      1.24628      108.719 
0.000138701      2.03551      100.751 
0.000559697      1.84632      140.260 
1.29052e-05      2.12167      98.1330 
0.000331626      1.69826      105.006 
3.78524e-05     0.553458      139.399 
0.000293354      1.10025      91.0551 
6.13317e-05     0.878166      120.049 
9.19797e-05      2.09882      97.6637 
4.89251e-05      1.27791      110.127 
5.81239e-05     0.905232      96.3297 
8.12555e-05     0.568413      140.679 
0.000275843     0.411965      67.1714 
2.31755e-05      1.37736      99.1852 
6.90176e-05      1.28502      110.975 
0.000261059     0.278118      59.6991 
0.000171425      1.33216      97.7695 
0.000115580     0.888484      121.180 
3.28553e-05     0.776764      78.1256 
0.000412620      2.24000      113.138 
0.000531375     0.438632     -65.7588 
3.07890e-05     0.704572      124.587 
8.42232e-05      1.29241      111.814 
0.000111385      1.49601      98.4512 
3.19691e-05     0.566349      137.900 
3.22449e-05     0.632861      71.5436 
6.91923e-05     0.903290      95.0996 
7.60643e-05     0.584228      141.938 
2.94200e-05     0.858831      114.796 
4.06507e-05     0.781185      76.6712 
0.000266205      2.63869      116.572 
0.000126913      1.29746      118.536 
9.47265e-05      1.85885      139.798 
0.000147191      1.78178      99.0379 
2.89265e-05     0.319665     -90.0000 
7.03938e-05      2.09621      97.1148 
0.000169239     0.626742      73.3008 
4.03718e-05     0.732771      124.992 
0.000350534      2.37421      96.2782 
9.95419e-06      2.01276      100.309 
6.36570e-05      2.00923      99.7402 
0.000219023     0.948556      55.2790 
0.000345864     0.456404      151.202 
5.35180e-05      1.29979      112.612 
0.000272532      2.46746      109.895 
5.48401e-05     0.786103      75.2342 
0.000182462     0.145849      15.8239 
0.000204386      2.21412      112.854 
3.62256e-05     0.899141      122.284 
2.65226e-05      1.51912      99.0947 
0.000334362     0.687989      125.545 
2.47222e-05     0.877265      114.241 
9.12670e-06      2.03646      135.000 
9.11810e-06      1.75941      98.4861 
6.88348e-05      2.02218      135.406 
0.000222240      1.30726      119.317 
0.000104355      1.49327      97.7107 
6.68538e-05      1.75664      97.8567 
0.000199667     0.901714      93.8172 
0.000126144      1.30946      97.0110 
0.000197341     0.915694      121.632 
4.63178e-05      2.10062      103.763 
9.26287e-05     0.791300      73.8680 
2.42830e-05     0.320306     -93.6266 
9.47138e-05     0.220795     -174.735 
1.60795e-05     0.625863      63.4349 
0.000125447      1.08000      91.0749 
9.15783e-05      1.98591      99.2630 
0.000144580      2.02311      136.202 
5.18658e-05      1.31124      111.485 
2.29203e-05      1.73152      96.6446 
0.000149902     0.219863      180.000 
3.37027e-05     0.399806      126.913 
0.000275435      2.64748      116.950 
0.000110256     0.600310      143.130 
0.000114070      2.35382      114.604 
0.000114624      1.72929      95.9778 
0.000108006     0.322129     -97.0919 
2.79376e-05     0.640096      75.5402 
6.60979e-05      1.46897      96.2465 
0.000216981     0.288454      56.3513 
2.64843e-05     0.635182      61.8001 
0.000165714     0.420241      64.6246 
0.000103674     0.765732      109.820 
0.000232274     0.164706      13.9729 
0.000150846     0.797167      72.4690 
1.93407e-05      1.49068      96.9390 
0.000188577      1.31851      112.274 
0.000145662      2.11957      103.638 
0.000106692     0.635505      77.2437 
0.000108076      2.09389      96.5851 
0.000164570      1.31730      120.085 
8.51164e-05      1.70362      105.665 
0.000154697      2.00914      136.619 
1.23345e-05      1.79219      100.934 
0.000124402     0.926075      122.660 
0.000117594      1.87564      97.3553 
3.45671e-05      1.67870      105.185 
1.17842e-05      1.06030      90.0000 
0.000175249      1.46698      95.4890 
1.70660e-05      1.79614      101.568 
5.88571e-06      1.12103      92.0331 
1.71691e-05     0.644631      60.2717 
0.000135047      2.49274      110.181 
1.13233e-05      1.04004      90.0000 
1.11535e-05      1.14142      93.0148 
1.52951e-05     0.981842      93.5053 
4.87451e-05     0.716267      125.921 
5.61245e-05      1.04023      88.8840 
6.25191e-05     0.994616      59.8369 
1.06393e-05      1.70713      95.3723 
9.49521e-05      1.80016      102.176 
3.84247e-05     0.638318      57.8233 
6.22954e-05      1.07414      114.166 
1.85738e-05     0.360880      123.723 
3.62114e-05      1.16287      93.9592 
8.95602e-05      1.70541      94.7197 
5.10949e-06     0.885454      115.392 
0.000125497     0.240124      180.000 
4.09516e-05     0.932586      54.5963 
5.47996e-05     0.551483      133.511 
5.03588e-05      1.87316      96.7407 
9.60597e-05      2.02336      136.999 
3.93225e-05      1.01998      88.8618 
7.28747e-05      1.39630      128.015 
1.65227e-05      1.18457      94.8330 
3.43090e-05     0.784114      109.337 
5.32410e-05      1.32496      118.888 
2.73790e-05     0.649334      56.3099 
1.20037e-05     0.943196      121.996 
2.63291e-05      2.30254      101.010 
2.63621e-05      2.38069      114.845 
5.22895e-05      1.02055      87.7666 
-0.000111071      1.54076      119.561 
2.99946e-05      1.68412      105.851 
2.50294e-05     0.954085      123.028 
1.43119e-05     0.777872      72.0195 
3.70310e-06      1.42904      107.921 
2.13867e-05     0.300155      53.1301 
1.76674e-05      1.43540      108.691 
7.12814e-06      1.26769      96.3552 
2.11211e-05      1.40887      128.665 
1.05714e-05     0.665655      57.2415 
1.04481e-05     0.189835     -71.5651 
3.50937e-06      1.80454      102.805 
6.88347e-06      2.49980      110.616 
3.42959e-06      2.22207      113.336 
3.41753e-06      1.70920      106.319 
-0.000506625      5.98949      169.029 
-0.000729270      2.61452     -119.317 
-0.000369887      12.2762      41.0370 
-0.000120864      6.18136     -80.6875 
-0.000287370      9.81583     -157.982 
7.84548e-05      7.34562     -2.18370 
-0.000183738      10.8830     -114.542 
-0.000150035      9.37794      12.9420 
0.000114460      10.5104     -40.5991 
0.000439582      7.32537     -2.18974 
0.000375261      8.10171     -48.2025 
0.000215067      10.3081     -120.296 
-0.000310915      6.18455     -80.5091 
-0.000272013      10.2215      90.8960 
0.000172107      5.87341      93.9046 
0.000398207      10.8447      111.646 
0.000276186      10.1399     -134.760 
0.000178299      3.57968      50.4436 
-0.000335865      4.99660      126.044 
0.000137006      7.77319     -42.1829 
-0.000266566      10.1773      76.5918 
0.000196520      7.02336     -118.027 
0.000200244      6.88866     -10.2021 
-0.000232479      5.82004      89.8005 
-0.000198981      5.49272      32.3613 
0.000333549      8.78421      29.3066 
0.000137482      6.27160      104.212 
0.000294915      10.2476     -151.434 
0.000322381      12.6580     -50.4506 
-6.98704e-05      9.25611      122.112 
-0.000103314      9.82958      167.066 
0.000323395      10.6882     -126.248 
3.53704e-05      2.28355     -71.0947 
-0.000226957      2.19215     -154.602 
0.000195078      6.98493      177.870 
-0.000224602      1.67374      24.7267 
0.000255920      2.29019     -70.6152 
-0.000194081      9.58589     -124.285 
0.000129087      10.4977     -40.5182 
-0.000130917      5.50290      11.1092 
-0.000285809      8.64236     -40.2139 
-9.59586e-05      5.96960      168.992 
9.91102e-05      4.49083     -62.4073 
-0.000159566      12.2729     -126.384 
-0.000220682      10.5761     -141.525 
-6.47842e-05      4.93990     -84.8930 
3.28972e-05      6.29623      104.346 
-0.000155092      11.3042      142.766 
0.000155315      9.66385     -84.5373 
6.22335e-05      8.04721     -131.571 
-0.000122954      9.26649      122.214 
-9.21505e-05      9.82507      167.181 
0.000122752      4.43132     -120.960 
3.18549e-05      2.30861     -70.7759 
0.000124185      10.2008     -119.480 
6.18762e-05      10.5438     -160.843 
-0.000121801      10.6110      144.513 
6.19995e-05      12.2260     -56.8815 
-9.07769e-05      8.18267      102.133 
6.11644e-05      3.56729      50.6852 
-9.08405e-05      5.40261     -45.0000 
9.05956e-05      6.40633      105.943 
0.000149618      8.82084     -51.2610 
-9.01973e-05      8.89565     -119.792 
-6.02352e-05      3.84666     -16.9326 
-3.07530e-05      4.94174     -84.6591 
-6.03116e-05      7.43986      150.886 
-3.06717e-05      12.2094      139.184 
-6.02656e-05      8.22384     -178.191 
3.04884e-05      8.86516     -140.492 
-5.93815e-05      4.86288     -88.1165 
3.02074e-05      12.7044     -140.623 
-3.00023e-05      10.9015     -114.497 
2.99026e-05      6.29124      104.167 
5.87694e-05      1.43380      98.0326 
2.99212e-05      7.22148     -77.8470 
-5.90927e-05      12.2241      139.244 
-5.42218e-05      8.03798     -165.445 
2.97409e-05      5.54139      112.492 
5.87515e-05      8.80189      29.2420 
2.97232e-05      3.59829      114.283 
5.86838e-05      10.1909     -119.381 
2.94732e-05      11.5754     -38.3350 
2.93869e-05      7.75288     -80.1976 
-2.93027e-05      4.96309     -84.4471 
-2.92682e-05      11.6413     -140.786 
-2.92440e-05      8.26903     -65.4188 
2.90551e-05      8.35878      165.165 
