! Center RA: 12 21 31.69052,  Dec: +28 13 58.50011 (2000.0)
! Established model.
! Flux (Jy) Radius (mas)  Theta (deg)  Major FWHM (mas)  Axial ratio   Phi (deg) T \
! Freq (Hz)     SpecIndex
 0.0803759    0.0286526     -135.000 
 0.0199178    0.0446338     -116.996 
 0.0102486    0.0828082      104.162 
 0.0294969    0.0633577     -108.650 
 0.0394790     0.141777      98.2159 
 0.0175883    0.0828082     -104.162 
 0.0109642    0.0802914      90.0000 
 0.0170206     0.107434     -111.727 
0.00239735    0.0600310      90.0000 
0.000456445    0.0202604      90.0000 
0.000448504      0.00000      0.00000 
0.00688611     0.145849      105.824 
0.00654668     0.164706      103.973 
0.00193536     0.189835      108.435 
0.00568570    0.0828082      75.8378 
0.00126891     0.209153      106.680 
0.000721588     0.215843      111.838 
0.00422918     0.126477     -108.327 
0.00282067     0.234065      110.062 
0.000966190     0.253192      108.489 
0.00502398     0.145849     -105.824 
 0.0109835    0.0896014      63.6495 
0.000426489     0.241454      114.414 
0.00339126     0.260038      112.569 
0.00314049     0.278155      111.026 
0.00571321     0.164706     -103.973 
0.00287096     0.297155      109.625 
0.000598649     0.304558      113.217 
0.00326733     0.189835     -108.435 
0.000376383     0.316312      108.392 
0.00198051     0.323277      111.801 
0.000635178     0.205897      118.994 
0.000151084     0.178866      116.673 
0.00192996     0.184432     -102.453 
0.00181474     0.341468      110.586 
0.000199488     0.144435      56.2274 
0.000310965     0.188432      121.981 
0.00194685     0.128090      51.1829 
0.000182019     0.360505      109.453 
0.000404300     0.449253      122.310 
0.000419946     0.459977      124.364 
0.000468069     0.476838      122.990 
0.000188573     0.216445      123.690 
0.000134023     0.798447      112.081 
8.83145e-05     0.334882      107.339 
8.73183e-05     0.805984      113.367 
0.000776119     0.349107      113.700 
0.000305684     0.961787      110.697 
0.000294095     0.375627      115.183 
0.000689290     0.969133      111.818 
0.00123789     0.951048      112.255 
0.000186939     0.394056      113.929 
0.000224356     0.429314      117.819 
0.000339244     0.456404      118.798 
0.000161040     0.474259      117.619 
0.000184710     0.367749      112.431 
0.000191343     0.483985      119.745 
0.000513069     0.501018      118.638 
0.000390144     0.141777     -98.2159 
7.02415e-05     0.725357      114.444 
0.000459727     0.751254      115.183 
3.12977e-05     0.987971      111.381 
0.000652207     0.161111     -97.2243 
0.000351296     0.995250      112.427 
0.000756631     0.510656      120.559 
0.000273462     0.769637      114.541 
0.000290881     0.100252      53.2159 
0.000284394      1.01401      111.990 
9.52815e-05      1.03212      111.585 
0.000157487     0.159832     -90.0000 
0.000157354      1.03975      112.623 
0.000406202     0.778270      115.898 
0.000186279      1.05848      112.201 
0.000145348     0.180093     -90.0000 
0.000189055     0.521249      122.478 
0.000134378     0.181229     -83.5812 
7.71491e-05      1.07726      111.794 
9.24284e-05      1.09540      111.415 
0.000362508     0.141141      45.0000 
0.000124378     0.184432     -77.5470 
0.000258798     0.760096      116.565 
7.00313e-05      1.11429      111.035 
1.77352e-05      1.00315      113.497 
0.000284424     0.733645      115.831 
6.67126e-05     0.940038      113.823 
0.000147897     0.516406      125.538 
8.31270e-05      1.13322      110.667 
0.000130935     0.189835     -71.5651 
0.000104570     0.966811      114.437 
0.000123247      1.15150      110.324 
0.000147854     0.197181     -65.9711 
9.00482e-05      3.00487      116.904 
0.000102205     0.527985      127.261 
0.000177780      1.17052      109.980 
2.88353e-05      2.90208      113.562 
1.44185e-05      3.01422      116.399 
6.99977e-05     0.156126      39.7351 
0.000146090      3.01409      117.248 
2.77650e-05      2.89404      113.195 
4.05850e-05      2.87543      113.354 
0.000155066     0.524894      130.361 
0.000104592     0.205897     -61.0062 
2.67641e-05     0.197181     -114.029 
7.76865e-05     0.948403      114.943 
0.000187763     0.169793      45.0000 
1.34700e-05      1.08279      85.7475 
0.000161624      1.08441      84.7194 
6.28268e-05     0.632861      108.456 
0.000144305      2.86775      112.996 
5.01066e-05      1.15869      111.264 
4.71206e-05     0.205897     -118.994 
0.000177378      3.02342      117.589 
0.000181257      1.17760      110.906 
0.000143618     0.216445     -56.3099 
3.46184e-05     0.993009      115.035 
0.000111146     0.626742      106.699 
0.000132302     0.523357      133.490 
6.55119e-05     0.975367      115.520 
0.000389937     0.184676      40.5508 
0.000570280      1.06707      83.5397 
0.000110557      2.85990      112.622 
0.000441892      5.19216      133.284 
7.03070e-05     0.216445     -123.690 
0.000207738      1.46109      120.424 
2.06991e-05      1.01966      115.547 
8.77372e-05     0.621223      104.909 
2.03911e-05      1.85351      55.1068 
0.000360830      3.75915      95.7971 
2.02790e-05      1.20797      109.335 
3.02560e-05      3.51290      131.762 
0.000413495      1.88068      54.9593 
0.000249046      1.00142      116.047 
0.000113441     0.536971      135.000 
4.79724e-05      6.39079      122.996 
0.000244811      3.52643      132.007 
2.87993e-05      1.25851      107.560 
4.70656e-05      3.02487      118.428 
0.000123039      1.47859      120.026 
5.62435e-05     0.228306     -52.0755 
0.000500830     0.244605     -125.006 
4.49231e-05      2.98422      120.176 
9.22346e-06      1.27784      107.286 
0.000149821      6.40779      122.897 
6.06775e-05      1.31037      105.954 
0.000131549      6.95749      108.957 
0.000100209     0.596781      103.599 
8.87555e-06      2.84190      112.773 
0.000367504      2.38180      113.763 
2.57149e-05      1.04672      116.069 
0.000153834      2.83412      112.396 
4.22941e-05     0.523357      136.510 
0.000414546      1.75664      97.8567 
0.000110248      2.97767      120.701 
2.34366e-05      3.03250      117.916 
7.45859e-05     0.250509      118.638 
0.000107479      1.02856      116.565 
0.000220018      3.60507      105.118 
0.000112706      1.32987      105.714 
0.000122846     0.538237      137.995 
0.000338639      1.47145      121.104 
9.26613e-05     0.592344      101.694 
7.65311e-06     0.354273      106.362 
1.46693e-05     0.369026      102.567 
0.000249375     0.983930      116.546 
0.000144614      6.95093      108.799 
8.21709e-05      6.39681      122.745 
0.000469386     0.212689      41.2810 
1.36792e-05      6.93176      108.853 
7.55286e-05      1.86954      55.4488 
2.11867e-05      2.97033      121.224 
0.000171299      3.79228      129.653 
6.93323e-05     0.796545      115.261 
0.000447675      3.47650      158.752 
4.01824e-05      1.01048      117.079 
0.000498533      3.75723      95.5011 
1.36182e-05     0.388092      101.940 
1.38367e-05      2.56320      112.970 
8.94915e-05      2.95302      121.428 
0.000271729      1.34866      105.490 
0.000135150      5.17798      133.432 
5.00767e-05      2.57087      113.370 
1.93267e-05      3.04139      117.412 
3.74405e-05      1.16287      93.9592 
6.48291e-05     0.233573      120.932 
0.000134366      2.65295      54.5207 
1.29116e-05     0.424483      98.1301 
7.60156e-05      2.29582      108.287 
3.75763e-05     0.588572      99.7625 
6.47152e-06      2.93768      111.157 
0.000165729     0.540492      141.030 
6.32848e-06      2.94938      110.648 
0.000130434      6.41323      122.651 
1.24076e-05     0.568616      100.109 
3.01399e-05      2.97964      110.014 
1.19987e-05      1.17760      69.0936 
1.21584e-05     0.443806      97.7739 
0.000157732      1.15869      68.7360 
5.07404e-05      1.06498      84.6228 
0.000207305      2.39003      114.207 
6.82473e-05      6.97594      108.905 
3.46293e-05     0.565518      98.1624 
0.000105940      2.94707      121.962 
7.32120e-05      1.18457      94.8330 
3.14443e-05     0.244605     -54.9936 
1.15868e-05     0.441522      95.1680 
6.76126e-05      3.05042      117.738 
0.000115950      4.08362      127.038 
1.51480e-05      3.46506      158.318 
3.76050e-05      2.57898      113.783 
0.000120796      2.99210      109.530 
5.43999e-05      2.66476      54.1660 
4.88869e-05      4.34159      165.322 
0.000292672      2.31618      53.4308 
0.000424154     0.543603      96.3402 
0.000101497      5.16458      133.275 
0.000303843      1.48162      121.750 
6.55605e-05     0.788112      113.929 
3.41839e-05      4.36120      165.390 
0.000148372      2.66035      53.5568 
0.000105389      6.61006      121.770 
0.000171895     0.228306      127.925 
5.25629e-05      2.30278      107.171 
0.000364102      4.35613      165.648 
9.50663e-06      2.28954      107.805 
0.000140064      2.81212      123.694 
0.000282515      3.61020      105.417 
3.78219e-05      3.52505      132.472 
2.93797e-05      6.90676      108.746 
2.28194e-05      2.58721      114.194 
0.000153734      2.41684      114.448 
2.32169e-05      4.11200      127.094 
0.000148761     0.957123      116.043 
8.76392e-05      1.18645      95.8079 
8.63385e-05      3.06837      117.561 
1.83379e-05     0.527985      142.739 
3.12665e-05      5.13594      133.265 
0.000270469      4.03754      110.587 
0.000206704      4.26115      127.948 
9.35396e-05     0.543641      143.984 
3.30993e-05      6.40232      122.498 
5.64189e-05      4.09981      126.868 
0.000326848      2.67198      53.2202 
5.07956e-05      2.96364      121.762 
0.000252339      6.59942      121.621 
0.000245224      5.08125      132.606 
8.00874e-05      2.29709      106.706 
4.07987e-05      6.99511      108.851 
0.000190850      1.75398      97.2010 
2.27361e-05      6.22481      122.671 
2.25263e-05     0.562998      96.1209 
3.93912e-06      2.59527      114.587 
0.000147769      2.79590      123.916 
4.51120e-05      7.02060      108.948 
7.21434e-06      2.60377      114.992 
8.06217e-05      3.80524      129.888 
0.000112976      1.20586      95.7141 
7.98207e-05     0.532403      145.683 
1.99616e-05      6.41942      122.401 
7.45402e-05      1.06954      82.4611 
8.39240e-05      3.07779      117.896 
3.04467e-05      3.52339      132.929 
3.40238e-05      6.21390      122.514 
1.86670e-05      2.61239      115.395 
2.69239e-05      6.61668      121.529 
9.81530e-06      2.29135      106.221 
2.66319e-05      2.95784      122.295 
6.64128e-05      1.35400      106.286 
7.22533e-05      2.29939      105.134 
5.83968e-05      1.49238      122.412 
2.40045e-05      6.88131      108.646 
4.52428e-05      7.03906      108.897 
8.90138e-05      4.20206      167.354 
8.56259e-05     0.538451      148.680 
8.69416e-06      6.40899      122.254 
3.82811e-05      4.08814      126.649 
2.05858e-05      2.62082      115.780 
2.53029e-05      1.12172      112.001 
1.53952e-05      5.30883      132.405 
1.33428e-05      6.34926      121.738 
4.83235e-05      1.53173      125.972 
2.53206e-05      2.59697      49.6878 
1.25128e-05      3.52301      133.386 
1.50186e-05     0.761740      113.206 
7.76237e-06      1.77168      118.291 
3.47649e-05      1.77334      97.1220 
5.15033e-06      4.35719      164.559 
1.97070e-05      6.35589      121.487 
3.19736e-05      2.79054      124.493 
1.96956e-05      7.06480      108.999 
-3.43261e-05      6.84230      110.713 
9.76013e-06      1.77123      116.847 
2.20502e-05      4.36263      164.302 
1.23550e-05      1.78047      117.429 
1.22063e-05      3.09505      117.727 
1.23512e-05      4.22183      167.414 
7.29359e-06      3.83330      129.918 
1.19914e-05      4.24087      167.471 
7.15482e-06      6.88758      108.800 
-0.000540776      9.08263      19.1520 
-0.000536383      4.30818      102.872 
0.000735354      8.43255     -70.3170 
-0.000586452      10.1160     -101.866 
-0.000303990      5.25692     -29.3898 
-0.000126988      5.27393     -29.2858 
-0.000601368      8.81079      81.7788 
-0.000154485      6.91969     -107.494 
0.000219974      9.79881     -13.6968 
0.000374835      10.6379     -46.3690 
0.000449461      9.12382     -115.722 
0.000211890      1.81630      118.259 
7.86946e-05      5.59924      60.2294 
0.000243675      2.39141      43.3090 
-7.80311e-05      7.34592     -7.66658 
-3.92676e-05      9.10843      19.2306 
0.000208305      8.21195     -67.3693 
0.000272078      10.6594     -19.6251 
0.000299573      10.3507     -9.78805 
-0.000285620      11.2207     -59.8255 
-0.000303900      8.00253      128.302 
-0.000291188      6.62899     -127.771 
0.000363644      12.1828     -144.352 
0.000175799      5.61619      60.3282 
-0.000135321      10.4924     -13.5582 
-0.000134147      4.62534     -12.2324 
-0.000133844      7.36525     -7.64633 
0.000134189      5.93546      145.993 
-0.000165261      3.56655     -102.627 
0.000228606      10.5697     -107.510 
-0.000193554      9.43334      28.6323 
0.000227737      13.7191     -44.1734 
-0.000163483      4.74836     -119.802 
0.000161982      8.49284      38.7879 
0.000159609      11.6945      38.7511 
-0.000251934      6.93937     -79.3693 
-0.000162150      12.0358      45.6062 
-9.52610e-05      6.91363     -107.334 
0.000161483      3.57878      62.0003 
9.94301e-05      11.2836     -122.847 
9.92206e-05      5.93155      81.0775 
-6.29264e-05      9.99822      55.1017 
0.000155223      9.72028     -90.5883 
9.48976e-05     0.655281     -12.3651 
-3.31087e-05      10.2885     -174.421 
0.000185851      7.80235      91.3226 
0.000154853      9.79404     -13.5816 
-0.000122997      10.2531      4.58813 
-9.48275e-05      12.2824     -49.3581 
0.000122862      6.55347     -95.7831 
-0.000122189      4.43998     -164.583 
0.000153873      4.78430     -137.371 
-0.000152965      11.2309     -59.7361 
-9.19783e-05      9.08930      19.2726 
-3.18785e-05      3.46057      59.4368 
0.000152413      6.70809     -126.393 
-3.17724e-05      9.77865     -72.3784 
6.03591e-05      10.1380      18.7555 
-3.14667e-05      1.72080     -107.590 
-9.09798e-05      3.39803      73.5940 
-9.02371e-05      9.57519      93.2346 
-9.02406e-05      10.2401     -179.551 
3.11344e-05      9.68463      74.6705 
0.000119637      5.93473      80.8843 
6.11333e-05      10.5639      118.990 
-3.08297e-05      7.08343     -4.69711 
-3.07877e-05      2.51414      78.0629 
5.89457e-05      8.10689     -41.1984 
-5.95738e-05      12.5383      48.4257 
-3.04287e-05      7.67797     -172.966 
-5.93575e-05      9.52018     -179.878 
3.01604e-05      10.5949     -107.578 
5.92771e-05      5.03893     -28.7024 
5.89394e-05      9.70417      74.7021 
-5.88776e-05      1.71479     -106.944 
-5.88288e-05      12.2956     -49.2864 
-5.81188e-05      7.06399     -4.71006 
5.83985e-05      9.84957     -112.188 
-5.78986e-05      8.04920      54.0991 
2.93312e-05      7.89102     -150.383 
-2.92842e-05      7.98998      128.188 
-2.92166e-05      2.49091      78.4260 
-2.92115e-05      8.61502     -33.0603 
-2.91253e-05      10.3272      104.011 
2.91390e-05      9.44091      89.1484 
-5.73120e-05      12.1403     -43.1316 
2.87439e-05      12.4031      134.674 
2.85839e-05      3.55205      62.1411 
2.84745e-05      5.04869     -28.9041 
2.84078e-05      9.72299      74.7325 
2.84441e-05      6.73642     -126.430 
4.94849e-05      8.54570     -19.4118 
7.11471e-05      8.36288      162.604 
0.000203144      11.4334     -50.3230 
9.04634e-05      8.30575      9.98399 
-6.87324e-05      11.5582      133.527 
0.000107535      8.52659     -19.4571 
-0.000123979      11.9277     -39.8291 
-0.000124723      4.20488     -67.3384 
0.000132567      3.70157     -173.797 
0.000471119      11.4275     -54.4741 
0.000163867      4.56487     -112.408 
0.000442931      11.5499      117.764 
0.000147912      8.36873      162.476 
0.000131251      11.5447      147.165 
-3.54201e-05      8.66216      85.8967 
0.000128957      5.47547     -117.878 
-4.11525e-05      10.1731      56.4682 
-0.000111488      11.5443      133.454 
0.000141835      5.38851     -108.167 
-9.30633e-05      9.33740      125.937 
2.07374e-05      13.5480      44.7599 
5.87071e-05      10.5142     -112.124 
-5.87511e-05      10.1506      132.363 
-0.000487701      11.3350      38.9110 
-4.00249e-05      12.5245     -127.475 
2.03505e-05      8.32570      9.95982 
0.000104049      10.7876     -25.9466 
-8.91212e-05      12.9520      129.737 
-5.53392e-05      7.73148     -5.19544 
-5.39567e-05      8.64195      85.8871 
-3.82852e-05      5.05359     -161.059 
0.000142110      8.30226      9.84629 
-5.27150e-05      7.49429     -173.105 
-7.86179e-05      12.5090     -127.530 
-3.63653e-05      5.30447      62.3728 
-6.94967e-05      12.1896     -40.2734 
-3.52100e-05      6.28028      157.928 
-9.50225e-05      8.26966      120.842 
-3.51132e-05      10.9076      55.2331 
-0.000106270      5.03443     -160.984 
3.54834e-05      9.83081     -95.8398 
-0.000141735      7.61476      59.1941 
-0.000120147      11.4580      136.271 
6.53726e-05      10.1534      140.196 
-0.000217745      9.27549     -124.549 
-1.76643e-05      9.19870      173.508 
-3.38895e-05      8.65846     -69.3033 
0.000244623      8.32322      47.5321 
-1.75127e-05      4.06153     -162.817 
3.27046e-05      11.8295     -136.918 
6.25507e-05      10.5218     -112.226 
1.71993e-05      8.50145     -19.3721 
1.71696e-05      12.8100      139.495 
0.000255659      12.4920      142.873 
0.000338368      9.80936     -95.7337 
3.29719e-05      5.81465      144.942 
-0.000129223      7.38333      178.294 
-3.28207e-05      10.5175      65.6274 
-2.98668e-05      6.88127      141.967 
-0.000164861      12.4806     -127.513 
-0.000142463      10.7140      34.9634 
-0.000104753      6.08592      95.2776 
-4.75227e-05      9.92903     -163.500 
-3.15699e-05      9.17931      173.494 
-8.45538e-05      11.1460      43.9826 
-0.000101379      10.8794      55.2599 
3.21459e-05      8.19322      146.854 
-0.000223442      11.6522     -37.0455 
-1.62703e-05      8.79708     -45.7396 
4.64727e-05      12.8122      139.623 
5.94227e-05      7.78149     -66.1985 
-4.64443e-05      6.91754     -23.1553 
-1.60047e-05      7.84651      115.193 
-4.52670e-05      7.93003     -120.963 
-0.000183882      12.9676      129.680 
0.000180561      10.1536     -72.8145 
1.58093e-05      10.3892     -159.962 
-9.88272e-05      12.6734      133.976 
8.55052e-05      12.0932     -52.3913 
-1.56242e-05      5.75288      104.087 
7.26139e-05      7.37990     -131.814 
3.04928e-05      6.19495      81.0876 
-1.54831e-05      8.69769     -45.6536 
1.54660e-05      8.49476     -19.2432 
0.000129380      12.2456     -140.433 
-4.37028e-05      10.5256      65.5307 
6.69690e-05      9.54720     -78.6450 
8.38397e-05      8.18257      146.969 
-1.50217e-05      11.9121     -39.8915 
5.36291e-05      5.79869      144.831 
-8.14305e-05      8.68321     -45.5602 
-1.49129e-05      5.77730      104.226 
-1.48882e-05      10.9898      21.5689 
-2.87778e-05      6.26150      67.8581 
1.48435e-05      11.4157     -54.5569 
0.000153580      7.03712     -98.4990 
-0.000213505      8.76316     -85.8113 
-4.86028e-05      9.88723      28.1190 
-1.46468e-05      10.7416      34.9923 
2.84719e-05      10.3825     -160.063 
-1.45970e-05      11.6900      47.2189 
4.00835e-05      11.8429     -136.849 
-2.72823e-05      10.1859     -109.858 
-0.000131365      8.15318     -86.7658 
-1.44440e-05      9.92329     -163.612 
6.48613e-05      8.74687      108.393 
1.43305e-05      5.63180     -20.3666 
5.37248e-05      5.39463     -108.364 
-0.000115193      10.9824      21.4706 
-1.42931e-05      10.3349      130.996 
-0.000375669      9.30730      61.5071 
8.45389e-05      8.38734      162.517 
7.53341e-05      10.1379      140.123 
-0.000190886      4.31313     -141.591 
-6.48249e-05      5.66126      103.694 
8.98465e-05      12.7968      139.564 
