! Center RA: 12 21 31.69052,  Dec: +28 13 58.50019 (2000.0)
! Established model.
! Flux (Jy) Radius (mas)  Theta (deg)  Major FWHM (mas)  Axial ratio   Phi (deg) T \
! Freq (Hz)     SpecIndex
  0.101070      0.00000      0.00000 
 0.0121598    0.0247628      180.000 
 0.0130949    0.0247628      90.0000 
0.00286934    0.0502759      90.0000 
0.00438809    0.0350198     -135.000 
0.00492885    0.0750387      90.0000 
0.00203210    0.0247628     -90.0000 
0.00340765    0.0560434     -116.222 
 0.0136140    0.0998015      90.0000 
0.00654158    0.0502759     -90.0000 
0.000430231     0.102828      103.935 
0.00163155     0.275756      95.1521 
0.00648851     0.279205      100.374 
0.00132190    0.0350198     -45.0000 
0.00533463     0.125315      90.0000 
0.00754651    0.0560434     -63.7780 
0.00335584     0.427186      110.568 
0.000883957     0.745662      103.561 
0.000149069     0.436502      113.612 
0.000404438     0.450455      109.461 
0.000139574     0.728215      105.970 
6.79032e-05     0.680020      107.135 
0.000382279     0.459299      112.375 
0.000373949     0.656397      107.772 
0.000561096     0.752053      105.451 
7.11352e-05    0.0247628      0.00000 
0.000323528     0.632861      108.456 
0.00116847     0.608714      109.217 
0.000194274     0.419129      107.397 
0.000627876     0.260903      106.715 
0.000304092     0.735413      107.825 
0.00111765     0.442821      106.439 
0.00183864     0.759025      107.253 
0.000524509     0.269072      111.772 
0.00201171      1.08512      104.661 
0.000176048    0.0790190     -108.263 
0.000130862      3.00850      118.272 
0.000458431      2.99685      117.855 
0.000130455    0.0711009     -45.0000 
0.000160892     0.583396      133.280 
0.000217948     0.127738      78.8221 
0.000686929     0.124864     -126.939 
0.000271239     0.425440      86.6632 
3.22230e-05     0.254886      101.376 
0.000120698      2.82057      114.069 
0.000231535      3.14458      119.005 
0.00109896     0.600643      135.000 
8.97063e-05    0.0903243     -33.8221 
0.000495540      3.30002      114.619 
2.96571e-05     0.251103      95.6595 
5.80332e-05      2.79729      114.282 
2.88465e-05     0.111750     -26.7371 
0.000522212      2.81026      113.594 
0.000110232     0.158275     -18.5208 
0.00163080      7.25121      109.748 
5.43183e-05     0.301880      114.526 
0.000426694     0.427684      83.2491 
7.90460e-05      5.67923      110.350 
0.000175146      3.16626      118.788 
0.00132162      5.68789      110.584 
0.000333349     0.181925     -16.0428 
0.000672239      3.48874      116.383 
4.85159e-05     0.279541      116.634 
0.000198154      2.78690      113.804 
4.72653e-05     0.600799      106.919 
0.000160431      2.87923      110.329 
0.000102934     0.225116      90.0000 
0.00112497      12.6604      127.457 
0.000937144      1.22751      123.379 
0.000769002      11.0694      117.143 
0.000723949      3.17863      119.191 
0.000488613      6.44019      104.846 
9.89297e-05     0.152107      80.6306 
0.000489111     0.206565     -14.0867 
9.64595e-05      2.87046      109.851 
9.62163e-05      11.0808      117.257 
0.000133856     0.790186      108.435 
0.000326002      6.46940      104.091 
0.000465762      6.38754      108.720 
0.000982761      4.55184      115.015 
0.000165547     0.201878     -7.04577 
3.67314e-05     0.246247     -156.091 
0.000239103      1.10982      104.328 
0.000119025     0.525271      180.000 
0.000195716      6.81479      101.638 
7.07914e-05      5.46325      107.853 
0.000265609      12.3517      127.682 
0.000311268      6.16834      109.907 
0.000318641     0.782708      106.715 
0.000409152      8.52194      113.332 
3.45141e-05      11.2271      117.593 
0.000603800      8.01890      118.085 
0.000133271     0.160200     -128.534 
0.000239650      5.45571      107.605 
3.20172e-05      2.89377      109.685 
0.000139012      11.2386      117.705 
0.000224088     0.176585      81.9388 
6.19920e-05     0.269072     -158.228 
0.000246423      3.80772      113.200 
7.65269e-05      5.42731      114.201 
0.000218116      5.15821      98.6429 
3.05808e-05      5.13373      98.6844 
5.72781e-05     0.406935      79.3739 
2.92705e-05     0.201878      82.9542 
0.000160926      7.11014      110.156 
0.000267804      12.3361      127.589 
0.000127802      5.10925      98.7263 
0.000202863      9.42265      106.175 
0.000349968      5.43751      114.439 
0.000363362      3.19078      119.579 
5.61814e-05      8.28570      108.108 
4.25308e-05      8.51187      113.175 
2.62620e-05     0.585387      110.014 
4.16385e-05     0.257645     -150.897 
0.000210146      8.54468      113.267 
0.000245310      11.2605      117.646 
0.000294043     0.602224      131.616 
0.000143494      8.04288      113.058 
3.89352e-05      6.46342      103.878 
0.000143386      8.14545      105.484 
0.000416694      4.77473      117.773 
0.000126758     0.550034      180.000 
0.000160248     0.279541     -153.366 
0.000136110      8.30901      108.050 
0.000202757      5.08477      98.7687 
0.000239888      6.39553      108.930 
6.22037e-05      1.19647      79.1552 
0.000203600      4.08003      109.321 
8.92983e-05      2.80044      113.130 
0.000390471      3.52195      116.565 
0.000306570      8.13887      105.316 
0.000100541      1.25116      92.3030 
0.000309713      2.68424      115.376 
9.73489e-05     0.146064     -120.913 
6.94681e-05      12.3145      128.406 
3.44932e-05      6.48214      103.605 
0.000184255      5.18343      98.6005 
0.000149880      7.52606      108.196 
0.000106233      1.17216      78.9274 
0.000105610     0.618947      133.330 
8.46626e-05      7.10164      109.969 
0.000162215      5.05477      106.374 
9.43621e-05      8.53464      113.109 
9.39424e-05     0.301880      24.5265 
1.11333e-05     0.594318      112.258 
5.26715e-05      7.77224      115.328 
2.13308e-05     0.467347      105.554 
0.000114305      12.2987      128.313 
3.16784e-05      6.48819      103.824 
2.12758e-05     0.775949      104.964 
8.14632e-05      9.11104      106.744 
7.77424e-05      6.43389      104.633 
5.03526e-05      8.03125      118.239 
0.000207809      12.3210      127.497 
4.00222e-05      1.41820      99.1334 
1.97537e-05      6.70492      109.380 
1.00719e-05      5.82059      103.920 
2.96851e-05      1.24131      124.334 
1.00073e-05      9.44716      106.132 
7.54563e-05      5.67377      110.913 
9.93652e-06     0.562184      110.878 
0.000128528      5.82660      104.156 
7.82586e-05      7.02015      108.691 
0.000637910      12.6697      120.865 
0.000102396      12.6570      120.769 
0.000804878      11.7394      116.563 
0.000399316      7.67532      90.5602 
0.000786560      12.5118      114.053 
0.000386064      9.92104      111.586 
8.09743e-05      11.7055      116.511 
0.000625611      10.6817      107.713 
0.000109073      9.93018      111.719 
0.000108359      9.73904      115.708 
0.000166841      7.45001      89.6133 
0.000218831      12.9442      120.527 
7.61901e-05      9.68435      115.372 
0.000528249      9.50558      121.559 
0.000621456      7.26858      125.058 
0.000235494      7.42546      89.4210 
0.000233492      4.36357      101.567 
0.000260417      8.93182      124.623 
0.000248494      10.4311      111.954 
0.000459832      12.6351      120.828 
2.48420e-05      12.5347      114.010 
9.29832e-05      7.70037      90.7426 
0.000222229      12.5673      115.952 
0.000250132      9.67376      115.239 
0.000113119      10.5891      117.413 
0.000199091      9.88439      122.081 
0.000137937      9.98180      120.224 
0.000250122      7.27504      90.1950 
0.000160208      7.20070      115.943 
0.000129119      9.11785      111.220 
2.12548e-05      4.54142      114.732 
0.000283965      4.36861      101.885 
0.000116100      10.5774      117.290 
0.000242793      4.57497      114.880 
0.000100529      3.55008      90.0000 
0.000136156      10.4082      112.005 
0.000187462      6.40456      109.144 
0.000170190      6.80984      101.434 
0.000184315      7.67561      90.7450 
9.78758e-05     0.807177      106.194 
0.000129387      9.75014      115.843 
0.000205090     0.102828     -103.935 
0.000221250      9.09477      111.276 
2.01200e-05      5.34469      116.087 
0.000127440      5.36694      115.970 
5.66736e-05      1.50751      95.7134 
0.000126532      3.37562      90.8534 
0.000160804      3.64712      96.2959 
0.000111345      2.42849      87.0421 
0.000125116      8.91777      124.492 
8.94090e-05      2.20624      107.825 
0.000106230      3.64448      95.9090 
3.66820e-05      7.02837      108.888 
7.11572e-05     0.800624      104.492 
1.83111e-05      12.1117      128.715 
6.96167e-05      2.51040      84.8552 
6.92764e-05      1.50525      94.7755 
3.47510e-05      3.18799      118.574 
3.49739e-05      6.45148      104.358 
5.18201e-05      12.0962      128.623 
3.47889e-05      6.96535      117.117 
5.14665e-05     0.958376      74.8865 
1.76302e-05     0.135024     -111.861 
5.13033e-05      5.68265      111.147 
1.75265e-05      5.06180      106.643 
5.13040e-05     0.301880     -155.474 
1.74281e-05     0.571478      113.199 
5.09525e-05      10.6649      107.882 
3.38919e-05      2.00307      119.119 
3.38019e-05      12.9655      120.471 
3.39302e-05      3.36097      85.3128 
3.38903e-05      5.17968      98.3214 
-3.35409e-05      10.4767      107.356 
1.68566e-05      12.2555      113.950 
1.68545e-05      2.40181      87.6185 
3.34424e-05     0.854373      110.568 
1.67331e-05      2.23745      108.234 
1.67133e-05      3.17622      118.182 
1.66869e-05      9.75273      113.411 
1.66396e-05      7.22297      115.857 
1.66474e-05      9.11843      106.898 
-0.000824881      10.1770     -165.665 
-0.00112551      10.1338      58.0670 
-0.000829970      10.4748      34.8115 
0.000326525      9.97016      70.1849 
-0.000201177      10.2791      146.989 
0.000698585      12.8972      141.548 
-0.000429027      3.58743      64.5820 
0.000874044      10.2766     -149.343 
-0.000721894      10.3667     -10.8984 
-0.000597881      10.2961      147.050 
0.000297405      6.30181     -178.724 
-0.000457206      5.47823     -118.808 
-0.000483057      8.95378     -64.1801 
0.000290658      12.7294      40.2203 
-0.000489671      12.4636      52.8914 
-0.000487309      9.16355     -75.2070 
0.000115260      9.98922      70.2243 
-0.000426975      9.16378     -96.7671 
-0.000165666      10.1573     -165.636 
-0.000263111      6.81570      80.3728 
0.000312159      11.9026     -132.754 
0.000464803      10.2398      161.318 
0.000261953      8.38819     -6.15737 
0.000214209      11.2863      45.7192 
-5.69735e-05      13.4301     -48.3816 
0.000211027      4.67190     -104.634 
0.000203954      6.28156     -178.720 
0.000310810      8.63006     -38.2241 
-0.000215799      8.33340     -151.159 
-0.000107841      10.5624     -72.2511 
0.000356986      6.90331     -1.82512 
0.000257791      8.27196      3.04721 
-0.000358954      6.22458      21.2909 
-0.000162308      11.3987     -134.573 
-0.000505686      10.3034     -70.9660 
-0.000206936      13.4150     -48.3241 
0.000301643      10.0335      70.1923 
0.000299363      7.71064      19.2337 
-0.000205461      4.60199     -110.882 
0.000103905      12.8668      137.456 
5.35394e-05      10.6490     -143.863 
-0.000103024      10.4080     -126.560 
-0.000103504      3.59618      64.2904 
-5.32011e-05      4.93842      128.590 
0.000150747      9.02222     -14.3749 
-0.000249005      10.4470      34.7870 
0.000101213      12.7145      40.2771 
-0.000247191      8.74469     -144.965 
-0.000293987      9.49154      124.092 
-0.000279954      7.75031     -97.7119 
0.000342319      11.3259      58.7238 
-0.000147578      11.5208     -62.7240 
9.84833e-05      10.8489     -58.8024 
-0.000242673      10.8854      63.7193 
-0.000289722      11.3218      60.3545 
0.000145836      10.1109      113.677 
-5.08809e-05      4.18562     -158.702 
-0.000194360      13.0990     -41.0374 
-0.000146481      11.4130     -134.646 
9.79548e-05      10.6327     -143.798 
-0.000147240      9.33899     -27.5533 
5.03865e-05      12.3091      33.8703 
0.000146896      10.0965      150.184 
-0.000193514      11.8643     -125.325 
-0.000145658      8.39900      123.048 
-5.00003e-05      5.90949     -138.707 
0.000286105      11.0507      34.3807 
9.66343e-05      9.49762     -104.388 
-0.000191664      9.56113      51.2861 
-4.94787e-05      4.96643      128.621 
-0.000143905      8.40671     -2.31739 
-9.60445e-05      4.16745     -158.605 
-0.000143600      9.44285      108.395 
4.86861e-05      9.10732     -149.664 
0.000141736      11.0668      34.3236 
-9.49196e-05      11.3250     -36.0187 
4.83191e-05      9.25110     -138.420 
4.82332e-05      7.43417     -102.427 
-4.80710e-05      7.37276     -96.8567 
-0.000128878      9.44181      29.7149 
-9.37717e-05      8.57918      120.391 
4.70920e-05      11.3738      138.209 
-4.70839e-05      2.80034     -1.22835 
4.69826e-05      10.9332     -123.662 
-4.69504e-05      8.32401     -151.277 
9.23223e-05      5.08780      106.441 
4.66126e-05      10.0789      150.127 
4.65839e-05      7.57491      54.6741 
-4.63294e-05      5.46049     -118.911 
-4.62372e-05      7.62855     -4.96583 
-4.62074e-05      13.4285     -48.2596 
-4.61546e-05      9.33111     -27.7191 
4.60684e-05      10.0594      70.1228 
4.59112e-05      3.59417     -170.070 
-4.57737e-05      4.60898     -111.109 
0.000414839      4.84203      1.66067 
-0.000510591      4.01151      13.5553 
-0.000260550      13.3092      134.086 
0.000393067      5.01580      4.57358 
0.000529535      9.65257     -111.517 
-0.000454856      9.79349     -158.308 
0.000375809      4.41560     -170.877 
-0.000498915      11.4037      129.020 
-0.000475066      3.42094      12.4906 
0.000143514      7.79154     -158.307 
-0.000360737      8.76815     -142.976 
0.000139734      6.24752     -61.3017 
-0.000329041      1.55243     -14.9296 
-0.000379312      6.21737     -54.1633 
-4.78869e-05      4.74011     -26.5651 
-9.25806e-05      13.3102      133.965 
-0.000304014      3.97854     -9.83896 
4.55813e-05      6.10953     -62.9314 
0.000164059      8.40128     -157.464 
-0.000122867      4.75824     -26.4559 
4.41962e-05      5.03600      4.55520 
-8.57749e-05      11.1426     -118.634 
-0.000203131      13.2962      133.902 
0.000326485      12.9040      136.758 
0.000190951      7.77341     -158.254 
-0.000120627      9.03041     -132.666 
8.32027e-05      6.12691     -63.0144 
-0.000689465      11.8965      46.2957 
-0.000519369      11.0341     -119.541 
0.000270058      8.23894     -7.95225 
-0.000119286      8.97129     -79.4645 
-0.000286643      10.9932     -148.769 
-0.000426222      11.6766      55.8197 
4.19448e-05      6.26530     -61.3906 
0.000178659      12.8606      138.153 
-0.000185481      7.96079      131.741 
-0.000214471      11.1511     -118.497 
-7.70973e-05      3.39697      12.2433 
7.71769e-05      2.68543      34.9868 
0.000113615      12.3526     -37.4992 
-7.67802e-05      10.0806     -8.09633 
0.000194961      6.25728     -61.1389 
-3.91481e-05      9.38003      126.503 
0.000201821      9.01217     -61.5038 
0.000110001      4.41244     -171.137 
7.47276e-05      2.55135      33.8116 
3.87879e-05      10.2253      62.3819 
-0.000266264      11.0202      43.6012 
0.000109749      10.8832     -123.837 
-7.32804e-05      8.39676      14.2002 
-0.000109591      7.36036     -15.2802 
0.000253605      11.1935     -150.687 
-0.000210410      11.4165      129.099 
-0.000192476      7.88143     -88.8380 
0.000307788      7.50965      44.8907 
-0.000137457      9.39210      126.603 
0.000102716      8.52398      63.0740 
9.72811e-05      10.2073      62.3292 
-9.30715e-05      3.40116      12.5645 
-0.000137808      13.2821      133.839 
0.000218201      11.7684      149.121 
0.000127282      6.86986     -25.8933 
3.57714e-05      8.89302     -38.7006 
0.000129171      6.11774     -63.1835 
0.000190242      7.61200      41.0589 
-0.000162450      7.83495      135.210 
-3.52986e-05      4.03120      13.4879 
0.000247140      6.39361      3.76845 
0.000405198      4.66769     -105.401 
-3.51709e-05      8.96760     -79.5918 
-3.50718e-05      5.77142      43.8779 
-9.46707e-05      10.0972     -7.97113 
0.000250744      10.6791      49.3284 
-0.000158573      9.81232     -158.352 
-0.000259511      5.29387     -29.6683 
0.000131702      12.3649     -37.5737 
0.000210192      11.5469     -136.967 
0.000205493      3.92467      54.1249 
0.000122935      2.65765      34.8926 
-0.000124307      5.76355      19.8811 
-0.000186045      9.36225      49.5053 
-0.000102207      10.6199     -20.6195 
0.000127299      8.90826     -38.6221 
-6.61026e-05      10.0779     -7.98651 
0.000123204      7.97932      140.085 
-0.000124278      11.4308     -57.8686 
-0.000123421      11.4771      61.0218 
-6.38894e-05      6.20553     -54.3149 
3.36934e-05      8.99622      162.936 
0.000206492      2.73774      27.8785 
-0.000338290      7.35524     -15.1336 
-3.33039e-05      11.0343      43.5313 
3.32831e-05      10.4217      62.4534 
-3.32335e-05      6.01726      22.4715 
9.45582e-05      5.91060      174.171 
-0.000200526      11.1482      142.802 
-0.000562768      10.8292      19.3050 
-0.000121177      8.68321      44.4398 
-0.000262798      9.54552     -100.014 
0.000247626      9.89554      22.8318 
3.27222e-05      6.27503     -61.2282 
-0.000825590      10.7571      22.7515 
-3.23183e-05      6.38830     -52.3777 
-0.000323422      6.54257      147.863 
0.000180058      8.57795     -176.258 
-0.000288928      5.77151      43.5987 
3.19178e-05      11.3532     -125.175 
-0.000149224      9.53746      71.0333 
-9.19949e-05      13.2686      133.779 
6.04017e-05      4.99635      4.59142 
-0.000237553      9.96038      100.294 
8.88968e-05      10.2609     -57.9813 
3.12291e-05      10.0243      53.5170 
-3.11427e-05      1.54963     -11.1685 
-0.000142313      11.4450      129.114 
-7.93831e-05      5.54139      22.4915 
5.49327e-05      10.9943      148.162 
-8.29550e-05      8.54415     -16.3117 
0.000115095      11.4265     -33.9405 
-8.62848e-05      9.97824      30.4701 
0.000212123      7.42498      27.5983 
-0.000135343      11.9605     -147.082 
-8.63816e-05      7.94732      131.632 
-9.09230e-05      6.40068     -52.2340 
0.000537590      9.65975     -111.625 
-0.000629303      10.8401      55.3716 
-3.04670e-05      5.85940      150.112 
0.000105114      11.6286     -32.5682 
3.02813e-05      4.86288      1.88353 
-8.43839e-05      6.11491     -150.837 
3.01644e-05      8.53318      62.9527 
-5.81744e-05      3.67704     -22.3833 
0.000234016      12.3489     -37.6310 
0.000156111      11.4997     -126.870 
0.000212867      10.9878      148.016 
-3.00180e-05      6.01399     -6.10966 
5.77637e-05      10.9001     -123.778 
8.30905e-05      9.23609     -156.657 
-0.000162356      9.40374      126.698 
-0.000278044      11.9715     -147.000 
0.000113118      8.09611      166.138 
0.000164860      9.57438     -11.5697 
0.000125655      7.59920      40.9480 
0.000288483      10.2062      13.5990 
-0.000313201      9.34959      49.5962 
0.000383961      8.36348     -98.1134 
7.98889e-05      7.66662     -55.5198 
0.000156460      6.57127     -65.9345 
-5.49739e-05      1.57201     -14.7394 
0.000128450      10.0302     -141.964 
5.52317e-05      6.82762      41.6764 
0.000138388      7.44798      16.5361 
-8.07248e-05      10.3436      36.8250 
-5.50128e-05      11.1333     -118.546 
-2.89027e-05      8.78037     -142.871 
0.000211453      10.1656     -109.540 
0.000135308      10.1398     -170.462 
0.000301858      5.77213     -126.830 
-0.000624107      11.5647      40.2997 
0.000716892      12.9049      136.885 
-0.000135133      12.4603      53.2212 
-0.000184500      10.8763      63.5764 
-0.000146691      5.87999      151.342 
0.000116542      10.7058     -146.044 
2.84628e-05      5.54207     -16.9972 
