! Center RA: 12 21 31.69052,  Dec: +28 13 58.50011 (2000.0)
! Established model.
! Flux (Jy) Radius (mas)  Theta (deg)  Major FWHM (mas)  Axial ratio   Phi (deg) T \
! Freq (Hz)     SpecIndex
 0.0473378    0.0397705     -90.0000 
 0.0104142    0.0286526     -135.000 
 0.0223259    0.0202604     -90.0000 
0.00693363    0.0446338     -116.996 
0.00413913    0.0202604      90.0000 
0.00100253      0.00000      0.00000 
0.000482676    0.0633577      71.3505 
0.00217572    0.0828082      75.8378 
 0.0115354     0.121759      80.4216 
0.00652702     0.141777      81.7841 
0.00387532     0.161111      82.7757 
0.000641239     0.219863      90.0000 
0.000599869     0.240124      90.0000 
0.00135923     0.280627      94.1402 
0.000417551     0.300838      93.8616 
0.000414946     0.101837      78.5245 
0.00391782     0.322129      97.0919 
0.00304892     0.345185      100.015 
0.00484120    0.0633577     -108.650 
0.000339252     0.365154      99.4623 
0.00104243     0.369026      102.567 
0.00971367     0.746703      110.347 
0.00202765     0.388092      101.940 
0.00890145    0.0828082     -104.162 
0.00279420     0.407936      101.351 
0.00172728     0.431906      103.360 
0.00224070     0.450910      102.787 
0.000470441     0.727741      110.902 
0.000226036     0.709549      111.464 
0.000224071     0.765732      109.820 
0.000654363     0.690733      112.079 
0.000436872     0.784114      109.337 
0.00103278     0.803259      108.858 
0.00480824     0.672002      112.728 
0.000596646     0.107434      68.2729 
0.00132268     0.821746      108.418 
0.000191762     0.181229      83.5812 
0.00337331    0.0720098      56.4755 
0.000725453     0.325253      100.636 
0.000362930    0.0896014      63.6495 
0.00392321     0.302778      97.5477 
0.00301652     0.840993      107.982 
0.000875008     0.260423      94.4620 
0.00274412     0.101837     -101.476 
0.00136982     0.470689      102.241 
0.000935009     0.860287      107.566 
0.00113876     0.698601      113.619 
0.00261151     0.121759     -99.5784 
0.000723432     0.490508      101.740 
0.00232645    0.0562440      45.0000 
0.000255595     0.466942      99.9013 
0.00118896     0.866617      108.843 
0.00142958     0.717210      112.970 
0.00104439     0.885104      108.435 
0.000753573     0.509625      101.293 
0.000870139     0.486913      99.4914 
0.000188668     0.891718      109.670 
9.58730e-05     0.904347      108.029 
0.00229346     0.141777     -98.2159 
0.000278395     0.735213      112.377 
0.000188061     0.910821      109.241 
9.22504e-05     0.942245      107.281 
0.00188640    0.0633577      18.6495 
9.08430e-05     0.981011      106.578 
0.000266010     0.999726      106.258 
0.000419863     0.854373      110.568 
0.000168670     0.835434      111.056 
0.000256527      1.01919      105.940 
8.61673e-05     0.780402      112.620 
0.000794217      1.04433      106.703 
0.000630539     0.506166      99.1272 
0.00135823     0.529508      100.864 
0.00109259     0.880267      111.293 
7.57915e-05     0.861421      111.783 
0.000840615      1.06870      107.404 
0.00127932     0.161111     -97.2243 
0.00121476    0.0802914      0.00000 
0.000233361     0.306099      101.310 
0.000382957      1.08805      107.085 
0.000181911      1.09418      108.099 
5.97788e-05     0.329594      104.100 
5.93573e-05     0.553458      102.529 
0.000606775     0.850533      113.557 
0.000308788     0.824622      112.808 
0.000571974     0.568616      100.109 
7.14561e-05     0.877265      114.241 
0.000607789     0.565518      98.1624 
0.000346880     0.895778      113.709 
0.00176970     0.546212      98.4529 
0.000193911     0.921540      114.332 
0.000263264     0.940038      113.823 
6.43064e-05     0.995250      112.427 
0.000125444      1.01401      111.990 
0.000829262     0.903799      114.842 
0.000521602    0.0600310      0.00000 
0.000180758      1.03212      111.585 
9.86085e-05     0.282706      98.0871 
5.83974e-05      1.05099      111.178 
0.000114195      1.05848      112.201 
0.000376533      1.07726      111.794 
5.54181e-05     0.349279      103.290 
0.000463887     0.140322     -90.0000 
0.000105165     0.392593      104.727 
0.000437586      1.09540      111.415 
5.08134e-05     0.417588      106.709 
9.87474e-05     0.398226      107.547 
0.000527928     0.930071      115.469 
0.000140736     0.423858      109.333 
0.000266022      1.11429      111.035 
0.00132264     0.159832     -90.0000 
4.48533e-05     0.430710      111.783 
8.72935e-05     0.457182      113.199 
4.24724e-05     0.438632      114.241 
0.000246924      1.12172      112.001 
4.15738e-05     0.465536      115.491 
8.05988e-05     0.501018      118.638 
0.000299453    0.0828082     -14.1622 
4.01062e-05      1.13322      110.667 
0.000116069     0.957123      116.043 
0.000262825      1.14053      111.619 
7.71425e-05     0.528203      119.442 
0.000455959     0.543603      96.3402 
0.000182206     0.538451      121.320 
0.000211499     0.975367      115.520 
0.000211308      1.15150      110.324 
0.000199384     0.259634      90.0000 
0.000600416      1.77181      110.477 
3.48134e-05     0.521249      122.478 
0.000351720      1.75354      110.700 
3.43201e-05     0.566331      122.005 
0.000539161     0.107434     -21.7271 
0.000226370      1.16375      109.042 
0.000196425     0.549255      123.126 
6.54403e-05      1.00142      116.047 
0.000125055      1.17052      109.980 
0.000276425      2.93064      112.888 
0.000270941     0.541740      94.2100 
3.18073e-05      1.01966      115.547 
0.000183559     0.576909      123.649 
6.19868e-05      1.06428      115.608 
3.01868e-05      1.04672      116.069 
8.68372e-05      1.10958      115.647 
8.61710e-05     0.560155      124.797 
0.000105316      1.17680      107.823 
0.000113119     0.260423      85.5380 
0.000140140     0.959745      90.0000 
8.45907e-05      1.09135      116.107 
0.000606957      2.92311      112.536 
5.73196e-05     0.604406      124.223 
0.000111737      1.18292      108.722 
2.88685e-05     0.980215      91.1844 
8.29585e-05     0.621263      123.172 
5.53417e-05      1.18958      109.647 
0.000133345     0.520413      92.2312 
5.44811e-05      1.57531      110.058 
5.44452e-05     0.516406      125.538 
2.74636e-05     0.262662      81.2912 
0.000144971     0.959959      88.7907 
0.000355914      1.55008      109.602 
0.000321749      1.11816      116.548 
2.65667e-05     0.649334      123.690 
0.000101647     0.500058      126.887 
0.000101786     0.297155      70.3754 
5.17094e-05     0.665655      122.759 
5.18135e-05      1.77900      111.088 
0.000234690     0.941076      87.5779 
9.89170e-05     0.499758      90.0000 
0.000467020     0.180093     -90.0000 
0.000456135      1.79791      110.856 
0.000172383     0.676411      124.148 
9.65718e-05     0.471709      126.396 
7.20653e-05      1.17076      106.879 
0.000159469     0.116465     -31.0271 
0.000234377     0.693272      123.208 
0.000199592     0.304558      66.7829 
0.000399674      2.27770      110.017 
0.000172227      2.89665      112.320 
0.000232051      3.28041      112.970 
2.34035e-05     0.500168      92.3215 
9.02343e-05      2.51408      111.465 
0.000249743     0.480248      90.0000 
6.71929e-05      1.16504      105.925 
0.000429305     0.484006      128.327 
0.000346930      1.12736      117.469 
0.000107773      3.30600      113.149 
0.000245830      2.88902      111.948 
4.27892e-05      1.15984      104.998 
6.21970e-05      2.54037      111.723 
0.000101773     0.721344      123.674 
2.09208e-05      3.31402      113.471 
8.06173e-05     0.134233     -26.5651 
0.000157252      1.13029      103.280 
8.17276e-05      3.33261      113.332 
0.000488570      1.53101      109.856 
0.000554792      2.27109      109.554 
0.000530465      2.86365      111.732 
0.000515998      1.82340      111.232 
0.000113662     0.200353     -90.0000 
1.99721e-05     0.883858      84.7880 
5.88957e-05      3.35926      113.513 
5.76106e-05      2.55920      111.555 
5.84049e-05      3.43019      113.722 
7.54961e-05     0.863684      84.6659 
0.000192300     0.313099      63.3735 
7.47366e-05      3.45622      113.899 
5.55345e-05     0.128090     -38.8171 
3.71433e-05      3.28807      113.283 
0.000152999     0.280627     -94.1402 
3.59497e-05     0.732771      124.992 
0.000324603      2.87093      112.093 
5.26165e-05     0.459987      90.0000 
0.000139530      1.15406      117.915 
1.82922e-05     0.260423     -94.4620 
0.000284521      1.12597      102.313 
8.72096e-05      2.55183      111.132 
0.000140583      3.48266      114.058 
3.57970e-05     0.480675      92.4157 
5.23148e-05      3.26947      113.423 
0.000101499     0.845593      83.2218 
8.37568e-05      1.13685      118.375 
0.000268262     0.704572      124.587 
0.000146052     0.161111     -82.7757 
0.000154954      3.24314      113.249 
4.87976e-05     0.144435     -33.7726 
0.000248512      3.50875      114.230 
0.000137473     0.460433      92.5220 
1.64776e-05      1.00106      92.2769 
9.38082e-05      2.54460      110.706 
0.000275524      1.16332      118.764 
0.000140199     0.304887      58.3833 
8.72089e-05     0.843513      84.5379 
0.000209151     0.300838     -93.8616 
0.000266104      2.26439      109.071 
4.24927e-05      1.00047      91.1604 
0.000213059      3.26176      113.109 
0.000331267      1.15476      104.027 
0.000138689     0.496341      130.094 
2.91273e-05      2.53776      110.294 
0.000255251     0.181229     -83.5812 
0.000146282      3.53556      114.395 
2.81688e-05      2.50490      109.586 
2.74834e-05      2.87214      115.139 
4.01466e-05      2.70740      108.972 
0.000363650      1.83055      111.801 
0.000112960     0.461703      94.9415 
0.000175299     0.315980      55.2532 
2.71217e-05      2.49843      109.164 
0.000272867     0.468857      129.806 
6.44216e-05      3.54366      114.682 
2.62988e-05     0.826223      83.0622 
1.31408e-05      2.49185      108.724 
3.84463e-05      2.88048      115.490 
0.000253806      1.17320      119.631 
4.99510e-05      2.46619      108.429 
0.000185997      2.70088      108.566 
7.88131e-05      1.00027      90.0000 
0.000264789      5.71608      130.597 
0.000138577      2.25809      108.604 
6.31709e-05     0.824094      84.4088 
9.19576e-05     0.320306     -93.6266 
0.000132261      1.52425      109.140 
6.86627e-05      2.86221      115.665 
0.000269805      5.55916      122.660 
0.000164304      3.57054      114.842 
1.19683e-05     0.161670     -29.7779 
1.17565e-05      2.44154      108.140 
5.52652e-05      2.43531      107.687 
6.35451e-05     0.744131      126.223 
4.31306e-05     0.463888      97.4354 
2.09089e-05     0.771858      126.580 
0.000196924     0.312731      50.1592 
9.10188e-05      3.25386      112.780 
8.71506e-05      2.87104      116.029 
0.000218247     0.441522      95.1680 
2.10480e-05     0.322129     -97.0919 
4.06899e-05      2.41011      107.391 
0.000124403     0.342244     -96.6731 
8.79062e-05      2.25171      108.115 
0.000272090      1.85692      112.150 
3.00620e-05      3.04266      107.599 
2.99984e-05      1.51796      108.444 
0.000130686      1.18335      120.484 
9.27315e-05      3.56208      114.546 
0.000118793      1.00047      88.8396 
9.76257e-06      3.03660      107.235 
0.000100949      1.67190      96.8826 
0.000130086      3.13968      122.775 
9.00820e-05      2.40413      106.930 
4.71128e-05      3.00563      106.625 
0.000102887     0.812072      127.982 
1.84668e-05     0.784101      127.769 
7.38216e-05      2.66919      107.895 
7.22084e-05      5.67484      130.425 
7.51330e-05     0.201375     -84.2257 
0.000133891      2.99990      106.254 
2.62530e-05      2.26481      107.468 
0.000165762      1.69202      96.8004 
0.000150694     0.345185     -100.015 
0.000100326      1.18381      105.666 
0.000172062     0.481580      131.589 
0.000209957     0.325575      42.4780 
4.88488e-05      2.24549      107.624 
0.000203970      2.85352      116.201 
8.24390e-05      3.77838      110.447 
9.66110e-05      1.19336      121.291 
9.89783e-05      1.67435      97.5454 
1.60703e-05      2.37889      106.606 
6.78547e-05      2.39831      106.467 
0.000146997     0.509625      131.837 
2.28540e-05      2.96949      105.627 
1.52922e-05      1.52297      103.680 
7.46743e-05      3.77135      110.158 
4.45309e-05      2.25903      106.996 
0.000167468     0.853200      129.289 
7.61654e-06      2.69450      108.157 
0.000119760      2.99449      105.896 
1.46059e-05      3.64080      115.725 
3.49428e-05      5.58652      122.727 
7.43855e-06      1.22122      121.610 
7.40272e-06     0.824695      129.091 
7.34742e-06      1.20401      122.115 
7.30229e-06      3.53979      111.201 
0.000123749      2.96410      105.250 
8.26680e-05      1.00106      87.7231 
8.18307e-05      1.23196      122.412 
7.22800e-06      2.59986      112.627 
4.74768e-05      2.23966      107.148 
4.62774e-05      1.51830      102.937 
4.63220e-05     0.220795     -84.7351 
0.000119591      1.15002      103.048 
0.000110374     0.369026     -102.567 
4.11143e-05      3.76467      109.880 
1.37772e-05      2.60743      113.023 
1.34658e-05      3.53252      110.895 
2.03778e-05      2.39286      106.019 
2.41315e-05      1.68974      96.1182 
8.28725e-05      5.57012      122.836 
1.84822e-05      3.68539      116.429 
7.24241e-05     0.420705      92.7603 
6.58977e-05      3.27255      112.643 
2.49780e-05      1.17870      104.753 
1.89272e-05      3.51360      111.013 
4.87441e-05      2.58186      112.794 
2.57861e-05      2.41234      105.887 
3.22366e-05      3.78302      109.779 
0.000111537      3.87719      119.343 
6.45002e-06      2.63766      107.193 
2.40288e-05     0.440193      92.6380 
8.23438e-05      1.24253      123.172 
6.44163e-05      2.23377      106.651 
2.77857e-05      3.69411      116.700 
0.000108343      3.77621      109.490 
6.20944e-06      2.43111      105.761 
0.000147795      5.98435      129.168 
6.08115e-06      2.48893      105.385 
7.07777e-05      1.67713      98.2316 
0.000118466     0.523357      133.490 
0.000115056      1.53806      102.768 
5.99670e-06      2.42568      105.300 
4.02284e-05      1.86466      112.726 
5.38753e-05     0.240977     -85.1771 
8.58739e-05     0.344213      35.5958 
2.81978e-05      2.48364      104.935 
0.000100962     0.373757     -105.487 
1.14346e-05      2.40687      105.423 
1.63749e-05      3.50638      110.704 
0.000132469      2.58948      113.192 
0.000174767     0.420217      90.0000 
5.45845e-06      1.89893      113.597 
1.60702e-05     0.880659      129.468 
0.000105836      3.15070      123.085 
5.52334e-05      3.02505      106.515 
4.15615e-05      1.25373      123.947 
3.13853e-05      1.90682      114.134 
4.10182e-05      2.45961      104.596 
1.05436e-05      1.01998      91.1382 
3.07093e-05      2.22805      106.152 
6.77316e-05      1.00559      72.6332 
0.000122476      3.29057      112.512 
0.000103698      3.76950      109.200 
4.85203e-05     0.893674      130.471 
3.97550e-05      1.04177      93.3035 
1.95624e-05      1.94141      114.990 
5.49470e-05      2.93500      104.601 
0.000114616      1.28186      124.192 
9.26711e-06      1.01158      71.5785 
4.91556e-06      1.62275      120.359 
2.38926e-05      1.68004      98.8901 
4.14810e-05      2.22270      105.669 
4.83267e-06      1.09157      98.4198 
3.22886e-05      1.63269      120.950 
3.66822e-05      2.45476      104.155 
4.81015e-06      1.70255      93.3605 
0.000168561     0.379669     -108.435 
6.43073e-05     0.360880      33.7231 
2.66439e-05     0.260423     -85.5380 
8.29005e-05     0.922240      130.611 
5.25495e-05      3.06126      107.489 
9.22231e-06      1.94973      115.510 
1.33333e-05      1.72176      92.6729 
1.35312e-05      1.68329      99.5715 
2.17318e-05     0.551483      133.511 
4.49641e-06      1.97677      115.787 
4.44821e-06      2.43512      104.272 
4.48409e-05      1.98567      116.313 
1.20402e-05      1.01978      90.0000 
2.13702e-05      1.68678      100.250 
8.63523e-05      3.76313      108.919 
8.32239e-05      1.64321      121.556 
2.88616e-05      2.21732      105.165 
4.27589e-05      3.05523      107.127 
3.22815e-05      2.44989      103.696 
4.25559e-05      2.84463      115.835 
1.63457e-05      1.74118      91.9758 
3.92933e-05      2.93015      104.232 
1.21576e-05      2.43021      103.809 
1.19740e-05     0.623033      132.413 
1.80766e-05      3.72951      117.112 
4.08199e-06     0.594411      132.288 
2.70839e-05      1.69036      100.901 
1.18842e-05     0.262662     -81.2912 
3.99324e-05     0.665671      131.344 
3.64721e-05      1.76011      91.2947 
3.88647e-06      2.19777      105.303 
3.76226e-05      5.55310      122.949 
3.25769e-05     0.440329      129.468 
2.91593e-05      2.19251      104.792 
2.55680e-05     0.366905      29.3961 
3.80483e-06     0.282706     -81.9129 
1.44767e-05      1.72249      102.735 
4.92785e-05      2.42545      103.344 
2.04671e-05     0.212689     -131.281 
1.40691e-05      2.57087      113.370 
5.32712e-05      2.02163      117.069 
1.41515e-05     0.286260     -77.8948 
3.31611e-05      1.26515      124.708 
5.96077e-05      2.90556      103.943 
7.22285e-06     0.950322      130.709 
1.41462e-05      3.73813      108.722 
3.34155e-05     0.963658      131.622 
1.61588e-05      1.06498      95.3772 
3.51099e-05     0.651151      132.478 
2.92662e-05      3.75661      108.627 
3.54916e-05     0.384685      27.9147 
2.54218e-05      1.71829      102.100 
3.40412e-06      1.04080      92.1899 
2.87836e-05      2.18761      104.298 
3.16908e-05      1.78036      91.2800 
2.85786e-05     0.399806      126.913 
2.85479e-05      3.73191      108.439 
6.50712e-06     0.310708     -75.0240 
2.81347e-05      2.42102      102.895 
3.19663e-06      1.51390      102.190 
1.53193e-05     0.991703      131.749 
9.23704e-06     0.316312     -71.6080 
9.16385e-06      3.09270      108.079 
6.11119e-06     0.999795      70.1234 
3.00831e-06     0.198446     -135.000 
2.96967e-06     0.694267      131.495 
0.000293819      12.6943      41.5517 
0.000325821      12.6286      42.3028 
-0.000398601      9.37766      173.632 
0.000355212      4.25889     -28.0054 
-3.90477e-05      2.19547      59.9296 
-0.000542857      1.86563      160.596 
-3.81484e-05      2.20569      59.4742 
0.000238830      8.72976      4.73338 
-0.000108570      2.18826      59.2047 
0.000169002      5.84797     -142.502 
0.000101254      5.83611     -142.654 
-7.06309e-05      5.51250     -157.156 
3.56301e-05      12.6961      41.4226 
0.000220469      12.6087      37.5260 
0.000363127      12.6272      42.4326 
0.000327579      11.6190     -40.4608 
-3.41136e-05      7.05785      4.06044 
-0.000151328      2.17796      59.6626 
-0.000344129      5.49383     -157.074 
-0.000272047      13.2377      135.613 
-0.000318066      9.03368     -37.9894 
0.000282138      8.93104     -85.2480 
9.56099e-05      12.7107      41.3644 
6.38344e-05      9.97454     -130.365 
-9.54420e-05      7.05649      3.90243 
9.30845e-05      8.15418     -123.496 
0.000312046      4.10601     -176.931 
0.000221749      4.28564     -28.1221 
-0.000330048      10.3445      148.923 
-0.000383581      12.7482     -142.844 
0.000118619      3.10365      82.9729 
0.000188412      5.20557      109.057 
0.000248178      6.09236      48.4602 
0.000240740      6.67095      174.494 
8.72247e-05      8.90925     -85.3622 
-0.000111962      11.6559      130.826 
5.76429e-05      5.83250     -142.386 
-5.48501e-05      11.5765     -33.7993 
-5.71333e-05      5.79770     -173.460 
5.39241e-05      12.5455      129.503 
0.000210354      10.7165      152.669 
8.25588e-05      6.04214     -106.932 
-5.53150e-05      9.43002     -111.393 
-8.17741e-05      12.9265     -44.4990 
0.000155144      6.07667     -69.1748 
0.000106459      11.7881      52.7216 
0.000157124      6.78188     -17.1498 
-2.79460e-05      11.0506     -112.898 
0.000129327      13.4680      136.565 
