! Center RA: 12 21 31.69052,  Dec: +28 13 58.50011 (2000.0)
! Established model.
! Flux (Jy) Radius (mas)  Theta (deg)  Major FWHM (mas)  Axial ratio   Phi (deg) T \
! Freq (Hz)     SpecIndex
 0.0779976      0.00000      0.00000 
 0.0184499    0.0202604     -90.0000 
0.00162770    0.0202604      0.00000 
 0.0162428    0.0286526      45.0000 
0.00869497    0.0446338     -116.996 
 0.0690867    0.0633577     -108.650 
 0.0197258    0.0446338      63.0042 
 0.0376862    0.0562440      45.0000 
0.00924974    0.0720098      56.4755 
 0.0525055    0.0633577      71.3505 
 0.0154075    0.0896014     -116.350 
 0.0382677    0.0828082     -104.162 
0.000817757     0.164706      103.973 
0.00596948     0.184432      102.453 
0.00327754    0.0446338      26.9958 
0.00306585    0.0600310     -90.0000 
0.00135274    0.0286526     -45.0000 
0.00224744     0.209153      106.680 
0.000293649    0.0397705      0.00000 
0.000139297    0.0397705     -90.0000 
0.000128962     0.204262      101.227 
0.00182240     0.223431      100.253 
0.000901096     0.145849      105.824 
0.000358684     0.101837      101.476 
0.00244070     0.126477      108.327 
0.00223797     0.243395      99.4042 
0.00172118     0.262662      98.7088 
0.00181996     0.152624      113.162 
0.00257299    0.0633577      18.6495 
0.000578413     0.417588      106.709 
0.00230612     0.107434     -111.727 
0.000944604     0.423858      109.333 
0.000116892     0.247514      104.036 
0.00114232     0.266484      103.019 
0.00115375     0.443026      108.466 
0.000535343     0.742542      104.036 
0.000378674     0.170734      110.586 
0.00102987     0.282706      98.0871 
0.000177467     0.722903      104.426 
4.39833e-05    0.0600310      0.00000 
0.00116840     0.161111      97.2243 
0.000568398     0.141777      98.2159 
0.000745194     0.776764      101.874 
0.000324475     0.121759      99.5784 
0.000701208     0.523472      96.5851 
0.000434650    0.0998015      90.0000 
0.000465908     0.635505      102.756 
0.000670544     0.503350      96.8496 
0.000280914     0.286260      102.105 
0.00145348     0.659734      104.020 
0.000136989    0.0802914      90.0000 
0.000505405     0.795867      101.585 
0.000194972     0.466942      99.9013 
7.27868e-05     0.446997      100.348 
0.000373233     0.815725      101.300 
0.000197181     0.427819      100.817 
0.000146111     0.302778      97.5477 
0.000613485     0.116465     -121.027 
0.000162217     0.181229      96.4188 
0.000178784     0.407936      101.351 
6.09829e-05     0.835602      101.027 
0.000154010     0.322129      97.0919 
0.000225469     0.839713      102.384 
5.07144e-05     0.201375      95.7743 
0.000519280     0.431906      103.360 
0.000118874     0.342244      96.6731 
0.000165500     0.543603      96.3402 
0.000268275     0.858779      102.105 
0.000603321      2.05086      113.573 
0.000537710      1.11816      116.548 
2.35069e-05     0.220795      95.2649 
0.000404444      1.25276      73.2909 
0.000651256      3.27521      121.261 
0.000258811     0.878599      101.828 
0.000164201      1.18958      109.647 
7.99143e-05      2.03299      113.793 
5.97714e-05     0.200353      90.0000 
0.000564881     0.640096      104.460 
0.000729097      1.80914      103.431 
0.000120385     0.521537      94.3734 
7.35272e-05     0.180093      90.0000 
3.63920e-05     0.201375      84.2257 
0.000266894      1.19654      110.560 
7.25529e-05      2.04094      114.294 
0.000281818    0.0720098      33.5245 
0.000335106      2.05874      114.071 
5.11657e-05     0.902718      102.823 
5.08018e-05     0.412220      104.011 
9.89156e-05     0.181229      83.5812 
1.72144e-05      3.25855      121.439 
0.000325996      3.21691      123.594 
0.000102139     0.204262      78.7726 
0.000236819     0.437032      105.945 
3.23714e-05     0.295127      118.390 
0.000124102      2.40686      118.267 
9.27661e-05     0.898439      101.563 
0.000102342     0.304887      121.617 
0.000117215      2.00385      116.056 
0.000278586      4.19950      119.373 
6.71892e-05     0.520413      92.2312 
0.000238453      1.25851      72.4401 
0.000275573      2.39768      117.856 
0.000178885     0.161111      82.7757 
0.000163727      1.12736      117.469 
0.000132191     0.921752      102.554 
0.000399212     0.126477     -108.327 
4.00378e-05     0.340529      93.4109 
0.000182169      2.06945      113.349 
1.35950e-05      2.01249      116.555 
0.000114398      1.99439      116.816 
0.000456636     0.300155      126.870 
0.000342269    0.0828082      14.1622 
0.000272902    0.0896014      26.3505 
0.000102753      1.20353      111.430 
0.000148982      4.18996      119.140 
0.000137097      3.30305      121.379 
0.000255687      4.43760      115.061 
9.34551e-05      3.20068      123.787 
7.09235e-05      2.07726      113.843 
3.54396e-05      1.23513      65.1009 
3.52796e-05     0.520018      90.0000 
1.18870e-05     0.945882      103.441 
7.83556e-05      2.00361      117.333 
0.000391608      1.88336      112.488 
7.67192e-05     0.941538      102.286 
0.000140862      1.24380      64.2543 
7.27274e-05     0.141777      81.7841 
0.000313728      2.09580      113.619 
3.25560e-05     0.520413      87.7688 
0.000264718      3.21199      124.087 
1.08709e-05      3.03276      105.690 
5.23833e-05      3.02735      105.321 
4.86913e-05     0.874671      100.529 
0.000149855      3.41151      123.043 
4.03955e-05      1.18112      118.291 
1.04917e-05     0.339925      90.0000 
1.04136e-05      1.13685      118.375 
0.000122427      2.01300      117.845 
0.000181186      4.21716      119.238 
6.69472e-05     0.521537      85.6266 
4.92622e-05      3.02206      104.951 
5.43726e-05     0.965599      103.161 
0.000132480      4.42937      114.833 
9.64058e-06      3.05523      107.127 
4.61663e-05      1.19900      117.832 
5.49774e-05      3.01708      104.593 
6.78184e-05     0.134233      63.4349 
9.17924e-06      3.04885      107.962 
0.000151905     0.449587      110.825 
9.01258e-05      1.15476      104.027 
8.18430e-05      2.38828      117.427 
1.76715e-05      1.19085      119.149 
3.45032e-05      3.02298      108.916 
0.000237546      4.59786      116.343 
0.000132015      1.25240      63.4503 
8.74886e-06      3.01204      104.220 
0.000134745      1.23208      103.131 
0.000127606     0.360755      86.7805 
0.000214040     0.523472      83.4149 
5.83286e-05      2.98837      103.949 
0.000178710     0.664933      105.714 
8.57205e-06      1.21108      112.322 
3.31005e-05      1.20859      118.681 
2.41325e-05     0.851327      99.4872 
1.61345e-05      1.11907      118.868 
5.62808e-05      2.54547      120.193 
2.46491e-05      2.00437      118.609 
0.000154244      3.02961      109.279 
0.000254848      1.80454      102.805 
4.71003e-05      3.42219      123.317 
0.000260463     0.961344      102.029 
4.59421e-05      1.21844      119.517 
8.28756e-05      2.98355      103.571 
0.000259592      2.01415      119.115 
1.53714e-05      4.41168      114.939 
5.73894e-05      2.10400      114.124 
0.000441729      3.22553      108.431 
0.000113568     0.144435      56.2274 
0.000119827      4.40317      114.700 
0.000228947      3.45025      123.414 
4.80035e-05      4.13427      118.300 
7.28107e-06     0.832090      99.7087 
9.31657e-05      1.12862      119.735 
5.45089e-05      1.22817      120.309 
6.54674e-05      2.12182      113.909 
0.000260085      2.97886      103.193 
0.000144605      2.37902      116.993 
0.000151870      4.61640      115.124 
0.000143561     0.121759     -99.5784 
4.47293e-05      3.22297      124.375 
9.41462e-05      1.26158      62.6272 
6.16547e-05      3.23109      121.331 
3.21877e-05      2.95472      102.914 
1.28929e-05     0.184676      130.551 
5.67773e-05      1.99852      108.068 
0.000198371      2.92656      100.235 
4.71122e-05      1.23852      121.119 
5.32156e-05      1.21892      113.203 
9.61212e-05     0.457182      113.199 
4.91363e-05      4.12470      118.052 
3.90934e-05      1.24709      74.1825 
0.000124569     0.198446      135.000 
5.27648e-05      2.13012      114.407 
3.38178e-05      3.23445      124.671 
4.37017e-05      4.39474      114.460 
4.40802e-05      2.11236      114.626 
7.46344e-05      4.58844      116.674 
0.000135837      3.03611      109.626 
8.39407e-05      1.24911      121.914 
5.77103e-05      3.24602      124.965 
1.47363e-05     0.781185      103.329 
0.000224841      4.35169      113.851 
0.000154304      1.67435      97.5454 
9.84676e-05      1.27103      61.8161 
0.000143183     0.169793     -135.000 
8.65410e-05     0.156126      50.2649 
2.36130e-05      4.24475      119.343 
1.41268e-05      1.24172      75.0820 
0.000124762     0.101837      11.4755 
0.000117848      4.62622      114.790 
4.64389e-06      1.13880      120.621 
6.74863e-05     0.284207      129.321 
7.04472e-05      1.20439      125.542 
0.000157287      4.53791      118.710 
6.13207e-05      3.21381      121.519 
0.000111931      4.25191      118.976 
3.28687e-05      2.56235      119.974 
4.15649e-05      4.11556      117.813 
1.63210e-05     0.684458      105.255 
8.67272e-06      1.23684      75.9553 
7.91621e-06     0.786103      104.766 
5.04328e-05      3.25724      125.246 
9.47844e-05      2.12057      115.105 
6.39946e-05     0.438632      114.241 
7.95592e-06     0.871317      99.2676 
4.16179e-06      1.23208      76.8694 
1.51300e-05      1.82430      102.664 
5.60619e-05      4.59757      116.900 
6.77573e-05     0.120062     -90.0000 
8.01391e-06      1.22764      77.7903 
4.45154e-05      1.81997      102.042 
7.48629e-05      2.01694      120.372 
2.96031e-05      1.43161      65.2081 
1.50429e-05      1.22366      78.6832 
3.26982e-05      2.01780      107.889 
4.13831e-05     0.543603      83.6598 
7.31202e-05      4.61808      114.570 
2.05290e-05      1.21985      79.6163 
2.46955e-05      1.22674      114.041 
5.78194e-05      1.28036      61.0465 
6.34757e-05      1.43990      64.5033 
5.11746e-05      3.26897      125.536 
2.44824e-05      3.43336      123.600 
2.08515e-05      1.25953      122.668 
2.93461e-05     0.465536      115.491 
3.49423e-05      1.21648      80.5202 
5.67785e-06     0.791300      106.132 
2.25075e-05     0.169793      45.0000 
1.63716e-05      2.12924      115.599 
8.09932e-06     0.121759     -80.4216 
5.30543e-06      3.46145      123.694 
-0.000340964      4.62007      142.384 
0.000401411      9.80514      162.676 
0.000274553      12.2697      39.1124 
0.000740695      9.37880      112.574 
0.000159034      8.08039      90.4257 
0.000348578      6.27676     -52.5095 
0.000227727      7.51627     -164.410 
0.000216748      8.90932     -87.4270 
-0.000335204      11.6022     -133.184 
-0.000331412      3.98939      35.2057 
0.000237654      8.16223      46.2926 
-0.000234332      9.91902     -131.402 
0.000225442      4.14226     -178.059 
0.000257718      9.88238     -91.1617 
0.000331089      9.75872     -110.517 
-0.000222646      3.98387      122.493 
0.000257918      5.60597     -84.4695 
0.000221909      8.92558      87.9475 
-0.000225423      6.16942     -141.980 
0.000216256      9.45803      35.7052 
-0.000306326      9.44261     -16.3626 
0.000192739      7.49748     -164.370 
0.000245433      12.2848      39.0550 
-6.84548e-05      5.92550      32.4584 
-0.000126086      9.45194      53.5195 
0.000218382      8.90861     -153.031 
-0.000156651      10.6756      71.4288 
-0.000151190      10.9564     -55.4098 
0.000152938      8.10694      29.7258 
6.55927e-05      12.5246     -132.863 
0.000159165      13.4953     -138.966 
0.000297744      9.25861     -68.5901 
0.000179293      5.04039     -89.7697 
-0.000182318      5.91957      32.7191 
-0.000179616      11.0554     -35.5024 
0.000233354      6.37818     -62.5516 
-0.000174536      7.82172      145.946 
5.98347e-05      7.74115      18.0591 
-0.000201322      9.84776     -148.536 
-9.02235e-05      7.99992     -24.8367 
-0.000173100      9.41765     -118.961 
8.61637e-05      11.5412      40.9241 
0.000116904      10.7565     -121.001 
8.75967e-05      8.91025     -87.2969 
-8.58923e-05      10.0060     -148.153 
-0.000118010      9.93653     -162.186 
-8.83487e-05      10.9202      39.0539 
0.000112746      12.5384     -132.931 
-3.04975e-05      6.73498     -10.6063 
8.65687e-05      7.49509      75.0010 
0.000140395      13.5086     -138.901 
-5.84235e-05      13.0998      131.968 
5.75724e-05      12.9005     -136.256 
-8.53396e-05      8.24620      87.7784 
-5.76712e-05      11.7142      59.7557 
-8.36938e-05      6.76766      34.1588 
2.94694e-05      6.89851     -40.0625 
2.93485e-05      10.6744     -111.083 
-5.71148e-05      6.73142     -10.4431 
-8.24633e-05      7.68665     -85.2234 
8.22294e-05      6.27899      116.075 
8.19203e-05      8.57073     -100.758 
-8.14103e-05      9.79796     -17.5857 
-5.54974e-05      5.58591      2.66407 
8.24326e-05      2.00990      121.162 
0.000108594      8.96542     -29.5367 
-8.20612e-05      8.09042     -131.492 
5.49422e-05      7.14617     -105.088 
5.46963e-05      10.6933     -111.044 
2.80337e-05      1.76885     -42.7135 
-8.09752e-05      5.26808      79.5032 
-2.77694e-05      8.40408     -126.680 
-5.42101e-05      13.1459     -130.743 
5.44941e-05      8.72138     -89.0781 
-5.39336e-05      9.49992     -89.8778 
2.75686e-05      6.88359     -40.1670 
8.04453e-05      11.0752      23.9739 
-2.74173e-05      7.27373     -169.863 
2.71328e-05      7.57469     -98.0466 
-5.29955e-05      7.20415     -14.9641 
-2.71061e-05     0.835602      78.9726 
-2.70118e-05      11.8576      31.4127 
-2.68819e-05      9.95510     -162.221 
2.66990e-05      7.50296     -164.221 
-2.66823e-05      3.80882      93.9087 
-2.64900e-05     0.788772     -120.468 
-2.63647e-05      12.8405      48.7886 
-2.63033e-05      8.24701      87.6377 
-2.62788e-05      10.1349      41.0794 
2.61647e-05      10.6369     -41.8745 
-4.87510e-05      11.8471      31.3291 
-2.61138e-05      5.93600      32.6173 
2.60760e-05      10.5292     -124.477 
2.59005e-05      7.50036      74.8515 
2.59284e-05      11.6086      52.4190 
-0.000366154      4.35582      44.6301 
0.000383145      9.37788      31.2161 
-7.71113e-05      5.00134      64.6653 
0.000242286      8.83165      61.7540 
-9.75990e-05      9.28826     -125.092 
0.000412828      12.7558     -138.814 
0.000160668      12.3335     -134.211 
-0.000215503      13.7373     -43.4064 
-0.000153236      4.37026      44.4435 
-0.000131604      5.81764      30.3554 
-0.000214377      7.42416     -32.2331 
-8.85838e-05      5.36031      52.2734 
-0.000124022      10.0717     -174.189 
-2.38982e-05      9.48864     -41.9259 
-0.000167875      9.53760     -108.205 
0.000127222      10.4477     -32.4128 
-2.35115e-05      6.01350      77.9062 
-2.34696e-05      10.7278     -143.109 
-2.33949e-05      9.48806     -125.130 
-6.70327e-05      8.00111      91.0049 
-8.64245e-05      5.99210      37.4080 
0.000121272      11.5840     -145.269 
-4.50809e-05      12.1063      54.2105 
0.000121733      8.68700      99.0050 
4.38821e-05      5.57622      4.32183 
0.000166980      11.6955     -47.7721 
-6.44366e-05      10.0966     -114.333 
-7.82376e-05      9.47414     -42.0048 
-2.23241e-05      9.28582      120.266 
-0.000307239      11.2760     -139.385 
-9.74592e-05      6.88389      101.736 
0.000184034      4.15063     -64.2966 
4.20713e-05      8.18886     -119.882 
-0.000102828      13.3475      130.563 
-0.000113626      10.6189     -112.362 
4.16978e-05      5.18192     -163.174 
-0.000187558      8.82625     -84.1493 
0.000143299      6.44467     -175.017 
-0.000177940      9.26833      120.329 
4.00786e-05      4.50022     -143.134 
-0.000179717      6.64347     -29.1910 
-9.17702e-05      8.15722     -170.260 
4.07306e-05      11.0113     -50.5249 
-2.11614e-05      6.11687      21.2767 
-3.26412e-05      5.01898      64.7606 
3.86167e-05      5.60838     -143.707 
-2.08778e-05      6.03757      77.7585 
-0.000202657      12.1182      54.1328 
4.00807e-05      7.10267      54.7417 
-0.000143759      13.7495     -132.111 
5.80210e-05      8.73981      48.2472 
9.30828e-05      7.85278      37.8620 
-0.000109546      11.7826     -41.9720 
0.000140709      8.26468      67.2229 
3.84040e-05      12.3475     -134.148 
9.28621e-05      11.1161      36.8057 
0.000156602      6.35502      165.042 
-9.76123e-05      7.98160      91.0074 
6.57324e-05      7.22915     -136.455 
-2.00539e-05      8.88645     -108.231 
1.98650e-05      5.59206     -143.584 
3.90644e-05      3.61515      65.1318 
-1.97827e-05      13.7510     -131.992 
-1.96748e-05      8.68799     -126.766 
-0.000251601      6.67038      106.368 
1.96382e-05      11.4673     -118.890 
1.95468e-05      11.2526     -137.375 
3.73811e-05      7.15066      42.1673 
-0.000102980      1.82042     -125.623 
-5.46515e-05      6.13576      21.2081 
1.92671e-05      3.63466     -134.783 
-3.70412e-05      11.8112     -41.9794 
-3.69536e-05      11.8723      40.5604 
-0.000103199      5.72518     -97.2284 
-0.000352761      10.0526      160.231 
-6.86333e-05      10.0883     -114.228 
7.02541e-05      8.57451      61.2795 
8.43138e-05      7.09099      54.8754 
-0.000138532      8.90683     -92.1872 
-8.55526e-05      8.67237     -126.843 
1.88775e-05      10.2893      79.5842 
-5.23200e-05      6.11944      77.7379 
0.000113917      11.2871     -133.995 
4.66523e-05      6.42281     -175.175 
0.000158489      13.2853     -130.113 
-3.41328e-05      9.92687      12.8050 
-5.03947e-05      6.34640      146.962 
1.85587e-05      5.37427     -8.13123 
-5.08201e-05      5.29920      61.1085 
3.55997e-05      4.96291      31.3203 
0.000261502      11.2571     -149.104 
6.71541e-05      3.62339      64.8519 
3.47122e-05      6.89390     -40.5282 
-1.80693e-05      6.29237      84.1616 
-0.000125142      10.2928      96.8079 
-9.57837e-05      13.7645     -132.055 
-1.78302e-05      10.7083     -142.895 
7.87585e-05      3.62042     -134.555 
8.44414e-05      11.8120     -139.189 
-0.000134268      11.3956     -63.7488 
6.72175e-05      11.5734      49.3463 
1.76121e-05      6.87851     -40.6379 
-1.75629e-05      8.90498     -108.192 
1.74217e-05      11.0178     -121.643 
1.73955e-05      11.2675     -137.445 
1.74014e-05      6.33617      164.996 
-0.000104593      4.38475      44.2581 
3.37578e-05      5.37707     -8.33704 
-7.79748e-05      5.80017      30.4565 
1.72220e-05      11.4964      119.152 
-6.55872e-05      10.0778      160.161 
0.000487595      11.5213      28.9673 
0.000141335      7.58728      39.4377 
3.33196e-05      10.4640      109.889 
9.82093e-05      12.3610     -134.213 
3.29598e-05      4.72617     -173.930 
6.29179e-05      11.1285     -34.6030 
-3.29316e-05      10.5125      67.0441 
1.66784e-05      8.71120      48.2578 
0.000132973      10.7204      50.9061 
0.000141066      13.3418      49.8639 
-0.000119520      13.1668      132.291 
-7.31221e-05      10.8491      138.140 
-0.000227757      9.10903      39.3874 
-5.88002e-05      11.4995      144.487 
-3.06936e-05      8.92851     -110.182 
-1.61201e-05      6.59348      31.8595 
-7.51913e-05      6.15395      21.1423 
-9.64283e-05      9.92062      120.134 
0.000111108      10.4573      109.789 
8.17903e-05      7.83738      37.9496 
4.62305e-05      4.70094     -172.423 
2.96229e-05      11.0720      36.8505 
-1.57411e-05      11.8877      40.4969 
0.000272511      11.7967     -139.124 
-5.94637e-05      13.1745     -130.752 
1.56655e-05      10.8010      147.017 
6.85486e-05      8.98390     -10.2578 
0.000125357      8.80819      174.005 
-0.000130829      11.7961     -42.0452 
4.44041e-05      6.90931     -40.4191 
0.000109847      11.5866      49.2703 
4.16980e-05      7.32044      119.995 
-6.54287e-05      8.68409     -126.946 
0.000316195      10.0418      35.8423 
8.34697e-05      8.98743     -7.03067 
-7.27331e-05      10.5391      66.9857 
1.54894e-05      10.6634     -45.4562 
-5.73167e-05      6.61006      31.7703 
