! Center RA: 12 21 31.69052,  Dec: +28 13 58.50011 (2000.0)
! Established model.
! Flux (Jy) Radius (mas)  Theta (deg)  Major FWHM (mas)  Axial ratio   Phi (deg) T \
! Freq (Hz)     SpecIndex
 0.0822849    0.0286526     -45.0000 
 0.0389850    0.0202604     -90.0000 
0.00145959    0.0202604      0.00000 
0.00137175      0.00000      0.00000 
0.000439925    0.0202604      90.0000 
0.00127681    0.0397705      90.0000 
0.00423994    0.0600310      90.0000 
0.00558941    0.0446338     -63.0042 
0.00431607    0.0802914      90.0000 
0.00196147    0.0633577     -71.3505 
0.00840407    0.0720098     -56.4755 
0.00775888    0.0828082      104.162 
0.00723946    0.0848966     -45.0000 
0.00483072     0.101837      101.476 
0.00171358    0.0896014      116.350 
0.00486841     0.100252     -36.7841 
0.00250796     0.107434      111.727 
0.00288176    0.0998015      90.0000 
0.000669719    0.0562440     -45.0000 
0.00130128     0.120062      90.0000 
0.00374832    0.0720098     -33.5245 
0.000211874     0.140322      90.0000 
0.000416871     0.159832      90.0000 
0.000601984     0.180093      90.0000 
0.000762701     0.200353      90.0000 
0.000184662     0.201375      84.2257 
0.00105676     0.220795      84.7351 
0.00471156     0.240124      90.0000 
0.00138197    0.0720098      123.524 
0.00256479    0.0848966      135.000 
0.000862739     0.113549     -45.0000 
0.000173491    0.0720098      146.476 
0.000170967    0.0848966     -135.000 
0.000799266     0.260423      94.4620 
0.00153514     0.128090     -38.8171 
0.000472313    0.0896014     -153.650 
0.000161296     0.243395      80.5958 
0.000155792     0.253192      71.5114 
0.000301203     0.260038      67.4310 
0.000150572     0.262662      98.7088 
0.000147882     0.100252     -143.216 
0.000147530     0.282706      98.0871 
0.00103442     0.250509      61.3621 
0.000429579     0.286260      102.105 
0.000280747     0.107434     -158.273 
0.00211005     0.144435     -33.7726 
0.000800866     0.306099      101.310 
0.000518940     0.156126      50.2649 
0.000752921     0.116465     -148.973 
0.000262444     0.100252      143.216 
0.00182299     0.329594      104.100 
0.000369114     0.107434      158.273 
0.00103559     0.260826      57.4530 
0.000764034     0.169793      45.0000 
0.000663990     0.116465      148.973 
0.000223472     0.134233     -153.435 
0.00145166     0.278118      59.6991 
0.000107709     0.128090     -141.183 
0.00199017     0.161670     -29.7779 
0.000955899     0.144435     -146.227 
0.000487151     0.134233      153.435 
0.000672814     0.349279      103.290 
0.000976743     0.184676      40.5508 
0.000755094     0.144435      146.227 
0.00100331     0.354273      106.362 
8.58568e-05     0.253192      108.489 
0.00119667     0.156126     -140.265 
0.000984274     0.288454      56.3513 
0.000446666     0.199903      36.9129 
0.000289362     0.223834      116.479 
0.00170544     0.373757      105.487 
0.000616849     0.161670      150.222 
0.00130557     0.178866     -26.6725 
0.000725647     0.188432      31.9812 
0.000962194     0.172194     -144.578 
0.000290998     0.216445      123.690 
0.000404194     0.172194      144.578 
0.000380856     0.216445      33.6901 
0.000215548     0.304887      58.3833 
0.000105711     0.178866      153.327 
5.22411e-05     0.184676     -139.449 
0.000753906     0.172194      35.4216 
0.000403447     0.161670      119.778 
7.71677e-05     0.172194      125.422 
0.000295035     0.178866      26.6725 
0.000294987     0.156126      129.735 
0.000651945     0.169793      135.000 
0.000273159     0.170734      20.5855 
0.000192512     0.164706      13.9729 
0.000527546     0.295127      61.6104 
0.000455054     0.161670     -150.222 
6.17853e-05     0.161111      7.22432 
6.10023e-05     0.152624     -156.838 
6.07573e-05     0.184432      12.4530 
5.95684e-05     0.181229      6.41879 
0.000116069     0.180093      0.00000 
5.80468e-05     0.184676      130.551 
0.000110889     0.181229     -6.41879 
0.000111092     0.392593      104.727 
0.000109370     0.189835      18.4349 
0.000108732     0.184676      139.449 
0.000542649     0.412220      104.011 
0.000301865     0.184432     -12.4530 
0.000383199     0.443026      71.5344 
0.000449643     0.198446      135.000 
0.000116297     0.197181      24.0289 
0.000317178     0.188432     -148.019 
0.000421644     0.189835     -18.4349 
8.94664e-05     0.205897      28.9938 
0.000348828     0.622720      95.5320 
0.000130724     0.284207      50.6787 
0.000200107     0.461573      72.3015 
0.000724910     0.199903     -143.087 
0.000368373     0.417588      106.709 
0.000115533     0.233573      30.9322 
0.000842248     0.642889      95.3579 
0.000270083     0.283342      45.0000 
0.000433373     0.199903      143.087 
0.000324351     0.223834      26.4792 
0.000499684     0.197181     -24.0289 
0.000511240     0.467874      70.0247 
0.000253842     0.423858      109.333 
0.000519179     0.212689     -138.719 
0.00103956      1.34166      63.4206 
0.000174577     0.284207      39.3213 
0.000218536     0.663064      95.1944 
5.10410e-05     0.220795      174.735 
0.000184457     0.205897     -28.9938 
0.000400618     0.411965      112.829 
2.44934e-05     0.212689      138.719 
0.000338555     0.216445      146.310 
5.98068e-05     0.240977      175.177 
0.000273248     0.215843     -21.8384 
0.000186992     0.486965      70.8391 
0.000209414     0.635505      77.2437 
0.000193527     0.259634      180.000 
0.000180122     0.226037     -135.000 
0.000416162     0.509380      135.000 
0.000199880     0.665204      96.9326 
0.000273823     0.297458      42.3417 
0.000109181     0.430710      111.783 
0.00126615      3.83714      67.3164 
0.000204718     0.215843      21.8384 
9.39703e-05      1.39720      66.3812 
1.87363e-05      2.27376      140.705 
0.000396589     0.223834     -26.4792 
0.000141551      2.25869      140.392 
5.40055e-05      1.33320      62.2955 
0.000105010     0.240790     -138.411 
0.000733185      1.92192      92.3943 
0.000276465      1.41510      66.6977 
0.000116529      1.34274      61.5301 
1.70693e-05      1.13565      63.8921 
0.000220745     0.279894      180.000 
6.59441e-05      2.24312      140.062 
0.000212258      1.14471      62.9814 
0.000505089      1.23409      106.970 
0.000319289     0.254690     -135.000 
0.000109911      2.51205      142.757 
7.77342e-05      2.22762      139.727 
0.000541331      1.75967      148.479 
0.000131677      1.35251      60.7756 
0.000350189     0.667840      98.5944 
0.000305284      2.21277      139.401 
0.000152050      1.06498      95.3772 
0.000442407      1.43373      67.0180 
0.000190581     0.475177      67.7281 
0.000688997      1.31587      163.229 
0.000129087      1.36215      60.0594 
0.000245976      1.35498      58.8893 
0.000489093      3.82965      67.5857 
4.31011e-05     0.260423      175.538 
0.000156808      2.18421      139.458 
0.000332001      1.74916      149.045 
0.000414352      1.94141      92.3703 
0.000116880     0.312731      39.8408 
0.000105292      1.08441      95.2806 
0.000130947     0.269397     -131.952 
5.37953e-05     0.523357      136.510 
0.000183061      3.72902      67.2844 
3.53009e-05      2.49655      142.486 
8.43702e-05      2.16942      139.124 
0.000185270      1.36556      58.1615 
0.000166992      1.45240      67.3300 
3.47014e-05      1.32186      162.388 
4.77809e-05      1.08646      96.3446 
1.66095e-05      1.26660      164.432 
7.16631e-05      1.34833      159.134 
4.71872e-05     0.283342     -135.000 
5.50901e-05      1.24172      165.082 
4.69733e-05      3.72125      67.5721 
1.53492e-05      2.34899      141.563 
3.07195e-05      3.84770      67.6964 
7.54394e-06      1.35540      158.364 
0.00100281      10.1842     -114.601 
-0.000881317      4.13437     -175.284 
-0.000656477      9.89946     -114.339 
-0.000445932      9.97870     -169.142 
-0.000682256      10.9841     -65.8146 
-0.000295223      1.56121      2.20366 
0.000649653      10.4954      41.8353 
0.000588083      12.1668      38.0566 
0.000588912      5.33857      12.1139 
-0.000336090      6.77600      136.315 
-0.000428694      11.2837     -155.160 
-0.000578887      10.4730     -121.807 
-0.000531261      9.39140      124.063 
-0.000516331      10.0986      38.1651 
-0.000321570      5.54242      95.1734 
0.000165233      8.98454      148.010 
0.000450657      8.22225     -111.698 
0.000411886      8.94403     -10.3040 
-0.000255811      9.24930      64.1002 
-0.000458391      8.50248     -178.518 
-0.000297374      7.12878     -177.104 
0.000495526      4.25714     -172.444 
0.000348463      9.86848     -173.249 
-0.000158457      3.22553      71.5693 
-0.000347664      7.83697      100.739 
-0.000340469      1.54096      2.23262 
0.000294337      9.70736      55.9144 
-0.000104856      6.77824     -68.3541 
-0.000103810      10.0093      147.485 
9.63376e-05      9.75942      160.862 
0.000376091      10.0218      23.6476 
0.000143304      8.96736      147.942 
0.000191376      10.0291     -152.056 
-0.000145419      4.96475      161.932 
-0.000182178      6.06004      11.4199 
0.000281624      5.77370      99.1685 
-0.000231598      6.76136      136.196 
0.000240673      11.7339     -49.6324 
-0.000189361      3.20631      71.4548 
-0.000246915      4.37806     -84.7584 
4.96069e-05      3.39719     -8.45943 
0.000225005      8.64906      63.1993 
0.000276720      9.96145      16.3230 
-0.000186247      10.0198      147.391 
9.47011e-05      9.28997     -128.006 
-0.000141186      6.75942     -68.2907 
-0.000471733      11.4536      59.8081 
-0.000140164      9.25641      84.9166 
4.85352e-05      9.74695      160.710 
-9.43009e-05      4.59816      67.2262 
-0.000186062      9.55235     -76.8087 
0.000321311      7.65786     -172.947 
4.82678e-05      10.9541      57.9060 
0.000229959      6.41830     -112.731 
-0.000230209      10.4740     -103.135 
-0.000212337      7.10380      79.2919 
-0.000137630      5.54429      95.3819 
0.000181882      7.36340     -144.846 
0.000137272      10.1927     -114.705 
0.000112665      1.18938     -42.2640 
9.17115e-05      8.00949     -54.2445 
4.68671e-05      8.73491      71.0249 
9.18425e-05      10.9712      57.9622 
-9.04778e-05      5.96468     -59.1339 
9.05891e-05      6.95069     -123.141 
9.08753e-05      7.09633     -102.036 
0.000255143      5.31949      12.1580 
9.01542e-05      11.8190     -141.113 
8.95019e-05      10.8708     -22.2736 
-8.99104e-05      6.07990      11.3820 
4.54131e-05      8.78982      104.763 
-8.86014e-05      9.39635      158.132 
8.88050e-05      5.30824      155.754 
-4.49752e-05      5.07583      49.1543 
-8.83576e-05      9.46301     -160.493 
-8.79021e-05      11.4797      47.4716 
-4.45569e-05      8.56059      96.8416 
4.43042e-05      10.0618      31.9216 
4.42809e-05      7.13254      110.521 
4.42679e-05      1.84233      32.1365 
-4.41869e-05      7.50618     -139.647 
-4.41326e-05      9.40234      124.162 
-4.40843e-05      11.6830     -148.297 
4.40231e-05      6.91381      3.64655 
-4.39164e-05      9.24047      64.2132 
4.38943e-05      3.62511      118.687 
-0.000339160      4.84200     -50.1933 
4.38939e-05      2.94866      38.1065 
-0.000269484      5.08910      48.9818 
-4.35602e-05      10.2503      29.9660 
-4.35699e-05      9.26935     -8.81034 
4.35607e-05      7.07651     -102.070 
-4.33677e-05      6.75195     -68.4505 
-4.33050e-05      9.01608     -99.1903 
0.000260396      7.02719      111.013 
0.000518279      12.3542     -48.4127 
0.000175011      7.04611      110.954 
0.000362963      7.48854      115.130 
-0.000596399      4.09213      161.482 
0.000515847      9.40115     -89.1448 
0.000357331      10.6956      145.745 
0.000580341      6.94291     -105.194 
0.000340736      7.05338      111.108 
0.000656436      9.31418      76.5885 
0.000268575      8.53372      60.6738 
-0.000144006      9.92507     -19.4213 
-0.000338439      11.6936     -148.212 
0.000367474      8.30578      99.1440 
0.000243339      5.39934     -81.4803 
-0.000220111      3.74410     -161.950 
0.000334152      9.90386      16.4207 
0.000276624      3.75511     -170.186 
-0.000171717      12.5696      53.9319 
0.000438753      12.3672     -48.3451 
-0.000128982      5.58451     -19.0168 
0.000162189      4.24036      62.4691 
0.000174736      7.15568     -128.759 
0.000227874      7.58180     -1.36109 
-0.000159376      9.98590      94.1368 
0.000116760      7.02804     -123.512 
-0.000236444      11.6286      57.4318 
0.000775018      10.6842      145.834 
0.000375158      4.23103      62.7124 
0.000210783      9.94040     -53.5894 
-8.42914e-05      9.54402      37.4222 
0.000307710      5.79028      111.691 
0.000232347      13.9210      46.5136 
8.55721e-05      8.53356      115.842 
0.000332954      4.27352      35.4734 
-8.25887e-05      9.21680      95.1053 
0.000233990      10.0059      23.4389 
0.000322521      2.54225     -10.4243 
7.90060e-05      7.96063     -97.0714 
-0.000109549      9.87051     -65.2020 
0.000339950      6.83056     -20.9318 
-7.96903e-05      11.8872     -33.6108 
0.000152468      10.1740     -97.7954 
0.000617327      10.3872      60.7203 
7.87255e-05      8.54366      60.5553 
0.000372562      10.5217      13.7469 
0.000245179      6.70946     -129.190 
-0.000113881      11.3493     -37.6996 
0.000205076      9.75873     -106.428 
0.000245669      8.55112      115.785 
-0.000408897      12.0211      135.402 
-0.000265884      10.9321      20.7899 
0.000184235      1.15971     -46.3895 
0.000211316      9.65657     -143.675 
0.000364742      7.14048     -128.857 
0.000468663      9.84319     -166.725 
6.94350e-05      9.04287     -150.883 
0.000106690      9.56079     -13.9195 
3.85654e-05      1.71588      36.4640 
0.000475817      12.4453     -140.475 
-7.50691e-05      8.19875     -13.2540 
-0.000110040      10.0582      38.0523 
-3.75066e-05      9.09134     -33.5169 
-0.000136737      4.90477     -104.885 
-0.000398356      12.2816     -34.1804 
0.000173132      5.52019     -64.9224 
-0.000224812      11.7396     -32.6875 
-6.32546e-05      6.21526      77.1718 
0.000105140      5.32364      12.3632 
8.74430e-05      9.61835      149.648 
8.20888e-05      8.88148     -10.2494 
-9.91251e-05      8.73263     -120.560 
0.000213976      8.93824      32.4826 
0.000131424      7.79469     -150.145 
-0.000272229      6.48462      141.012 
3.54402e-05      7.97429      48.1506 
0.000212524      10.5257      41.6882 
-0.000293451      1.54447      4.45849 
-3.49644e-05      4.48309      135.183 
0.000542632      12.7679     -131.381 
-9.63400e-05      6.21979      76.9898 
0.000314937      12.6981     -142.100 
0.000297543      7.16703     -33.7333 
3.47252e-05      7.90341     -100.941 
-6.79052e-05      4.09861      161.213 
3.46945e-05      6.35087     -112.201 
-9.87489e-05      8.20342     -13.3918 
0.000289369      8.15928      66.4527 
-3.44457e-05      9.23446      94.9693 
0.000117307      10.8029      108.903 
-0.000253879      9.78767      48.2289 
0.000572570      9.98729      23.4852 
-0.000313407      10.0462      37.9647 
0.000117187      5.80842      111.620 
0.000149995      10.1940     -97.7800 
3.37775e-05      8.19202     -6.44799 
-0.000186536      3.83351      9.61167 
9.08057e-05      7.02212     -77.6658 
-0.000236119      11.7043     -148.128 
0.000205239      7.90728     -101.085 
6.08988e-05      7.02259     -123.733 
6.54089e-05      5.00954      83.8086 
0.000157224      9.40146     -89.0259 
-0.000179730      5.76464      41.7655 
-0.000150090      11.6181      57.5129 
6.36221e-05      6.36963     -112.132 
-0.000582745      13.5744      138.583 
0.000145261      9.48888      107.289 
6.13295e-05      7.95921      48.0533 
-6.34475e-05      4.10228     -121.445 
5.40226e-05      5.94239     -28.5521 
3.26014e-05      1.17378     -45.6734 
-6.31440e-05      11.9088      37.5631 
0.000122218      9.92470     -53.5226 
-9.16039e-05      8.89432     -109.574 
-3.23412e-05      9.27834      84.8077 
-0.000146236      13.5624     -134.700 
0.000921176      13.9344      46.4554 
3.19967e-05      7.60205     -1.35747 
8.99687e-05      3.20753     -160.327 
-3.18999e-05      11.7286     -32.6042 
-8.85453e-05      5.10242      48.8101 
0.000119314      9.76522      161.863 
0.000341150      5.49426     -65.0205 
0.000141435      9.92329      16.3876 
-9.12412e-05      10.0324     -170.011 
-0.000317202      11.4653      47.4057 
8.21282e-05      9.50748      101.403 
0.000116984      11.6614     -142.246 
3.14786e-05      8.06076     -152.037 
-3.15004e-05      4.08603      160.853 
-0.000115354      9.56011      37.3484 
0.000165722      8.30258      99.0060 
3.13601e-05      7.06070      111.261 
0.000114827      3.34714      103.127 
3.12541e-05      9.29447      76.5595 
-0.000698605      10.0626      88.6326 
-5.83673e-05      1.23651     -140.911 
-3.10832e-05      6.44121      121.023 
-3.10724e-05      4.75189     -52.6940 
-0.000139838      6.25280     -163.655 
0.000135032      3.44405     -27.3132 
-8.94339e-05      7.96701     -106.481 
7.84946e-05      2.73559      41.1519 
-0.000195104      9.18242     -1.25025 
0.000114990      6.39417      104.865 
-0.000307519      13.5480     -134.760 
-0.000189442      10.1609      29.9979 
-0.000269508      11.6016     -41.7148 
0.000198548      5.01168      83.5869 
0.00101242      11.0526     -157.889 
-0.000140377      4.91002     -105.113 
5.76344e-05      9.64025     -143.604 
0.000136788      8.95243     -77.4863 
-7.85687e-05      9.80079    -0.701904 
0.000152533      10.5457      125.741 
-2.97461e-05      4.09247      160.595 
5.76899e-05      1.15990     -45.0000 
0.000185149      9.30950      76.7098 
-2.93540e-05      7.20375     -28.3456 
-0.000109447      10.7191      28.0487 
5.45581e-05      9.47277     -164.319 
2.91326e-05      1.73671      35.1664 
-0.000159562      9.80056    -0.583467 
8.28541e-05      8.63537     -86.5476 
0.000254204      8.06409     -1.84503 
0.000131480      4.68075      14.0942 
2.89713e-05      4.32940      116.330 
-0.000131790      11.8964      37.4857 
-5.66711e-05      8.99438      155.430 
-7.66078e-05      11.6413      133.955 
-0.000128018      3.75960      104.483 
0.000169744      5.49718     -112.462 
-5.55608e-05      12.7743     -138.045 
8.37743e-05      11.6879      123.907 
2.84788e-05      10.5554     -161.325 
-2.84114e-05      3.21992      153.435 
0.000148197      11.0399      145.330 
-5.49993e-05      5.45914     -15.5148 
-7.83101e-05      7.22159     -28.2693 
5.46124e-05      10.6474      64.8780 
0.000245190      9.60502      88.0928 
-5.19135e-05      9.36437      38.5845 
9.92193e-05      9.45326     -164.286 
5.29379e-05      10.2501      104.577 
7.71667e-05      10.5746     -161.361 
5.34919e-05      9.77745     -106.396 
-2.72761e-05      5.87602     -71.1347 
-0.000205267      5.27900      58.4789 
5.33982e-05      6.69715     -129.061 
5.04538e-05      9.01532     -150.932 
2.72482e-05      6.22625     -87.4235 
8.86030e-05      12.0205      31.9459 
2.70766e-05      6.62918     -117.879 
7.56407e-05      3.75171     -170.491 
-0.000323583      10.9012      20.9613 
-2.69787e-05      3.23806      153.595 
-2.69139e-05      4.09925      160.328 
0.000111343      7.78462     -150.274 
2.68141e-05      11.3058     -153.299 
-0.000236722      5.86950     -71.3218 
-2.66616e-05      9.00283      155.313 
0.000171206      11.6766      123.825 
2.65875e-05      12.7787      129.221 
0.000187148      8.74177      35.6875 
0.000207158      6.24649     -87.4318 
-2.64324e-05      4.52891     -72.5287 
0.000749320      11.6038      35.3869 
-4.74452e-05      9.08631     -33.6914 
0.000278778      6.38901      104.689 
-9.47805e-05      4.16134      1.37426 
-2.61210e-05      4.27541     -42.3467 
9.50542e-05      2.75594     -111.717 
-0.000146228      13.2421      39.4838 
-8.83793e-05      11.3281     -44.6431 
4.86264e-05      3.94511      38.2105 
9.43024e-05      8.07963      164.348 
