! Center RA: 12 21 31.69052,  Dec: +28 13 58.50011 (2000.0)
! Established model.
! Flux (Jy) Radius (mas)  Theta (deg)  Major FWHM (mas)  Axial ratio   Phi (deg) T \
! Freq (Hz)     SpecIndex
  0.158443      0.00000      0.00000 
0.00767451    0.0202604      180.000 
0.00528134    0.0286526     -135.000 
0.00503811    0.0202604      90.0000 
0.00122532    0.0446338     -116.996 
 0.0104228    0.0562440     -135.000 
0.00378027    0.0397705      90.0000 
 0.0111807    0.0446338      63.0042 
 0.0569130    0.0720098     -123.524 
0.00957985    0.0600310      90.0000 
 0.0508956    0.0633577      71.3505 
0.00764831    0.0848966     -135.000 
 0.0145798    0.0896014     -116.350 
 0.0170019    0.0802914      90.0000 
0.00881774    0.0828082     -104.162 
0.00241333     0.247514      104.036 
0.00392140     0.271765      107.184 
0.000395413     0.266484      103.019 
0.00345653    0.0828082      104.162 
0.00116293     0.227911      105.272 
0.000264710     0.209153      106.680 
0.000129336    0.0446338      116.996 
0.00116357     0.253192      108.489 
0.00116747     0.107434      111.727 
0.00137507     0.291183      106.006 
0.00111613    0.0633577     -108.650 
0.000556961     0.126477      108.327 
0.00179491     0.178866      116.673 
0.000980653     0.286260      102.105 
0.000726667     0.152624      113.162 
0.000656555    0.0446338     -63.0042 
0.000231471     0.134233      116.565 
0.000733191    0.0600310     -90.0000 
0.00167512     0.306099      101.310 
0.000146659    0.0446338     -26.9958 
0.000413539     0.161670      119.778 
0.000270324    0.0397705      0.00000 
0.00180705     0.310708      104.976 
0.000757352    0.0600310      0.00000 
0.00120906     0.329594      104.100 
0.000845414     0.188432      121.981 
0.000104165     0.349279      103.290 
5.13094e-05    0.0828082     -14.1622 
0.000247199     0.437032      105.945 
0.000573191    0.0802914      0.00000 
0.000506389     0.205897      118.994 
0.000365753     0.455823      105.272 
0.000439622     0.101837     -11.4755 
0.000329949     0.480914      106.965 
0.000462570     0.101837     -101.476 
0.000234918     0.475398      104.628 
0.000868400     0.121759     -9.57842 
0.000361478     0.815792      107.118 
0.00103687     0.216445      123.690 
0.000670788     0.500328      106.288 
0.000215259     0.948461      108.449 
0.00168712     0.107434     -111.727 
0.000326770     0.967701      108.070 
6.74048e-05     0.791300      106.132 
0.000254593     0.797167      107.531 
6.36722e-05     0.145849     -15.8239 
0.000213191     0.986983      107.705 
0.000517529     0.164706     -13.9729 
0.000148321     0.771858      106.550 
0.000142321      1.02868      103.499 
0.000117620     0.495028      104.036 
0.000190324      1.04767      103.250 
0.000605172     0.708758      106.420 
0.000294645     0.942245      107.281 
3.31356e-05     0.664933      105.714 
3.28897e-05     0.601667      105.406 
9.56912e-05     0.577108      104.072 
6.30560e-05     0.955909      105.760 
0.000550226     0.728215      105.970 
0.000237345     0.558204      104.559 
0.000201751    0.0633577      18.6495 
3.08485e-05     0.961610      106.922 
3.02688e-05     0.989328      104.047 
0.000357412     0.100252     -126.784 
5.89560e-05      1.00899      103.768 
0.000289101     0.753177      106.973 
0.000606494     0.533698      103.001 
8.16769e-05     0.929974      108.830 
0.000152302     0.954815      109.560 
0.000270212    0.0998015      0.00000 
0.000379166      1.07195      104.017 
7.19122e-05     0.936453      109.960 
0.000341107     0.961787      110.697 
0.000772731     0.513977      103.509 
0.000677649     0.747714      105.543 
0.000162230     0.141777     -8.21587 
0.000314294      1.09662      104.787 
3.81552e-05     0.969133      111.818 
0.000321376     0.995250      112.427 
0.000381120     0.325253      100.636 
0.000219346     0.184432     -12.4530 
0.000252456      1.11549      104.532 
0.000304261     0.228306      127.925 
0.000260602      1.02987      114.081 
0.000214499     0.209153     -16.6796 
2.68637e-05     0.493986      111.381 
0.000191885      1.14028      105.262 
6.19471e-05     0.501727      113.536 
0.000166358      4.63046      109.689 
0.000402732     0.227911     -15.2717 
4.81553e-05      1.03798      115.064 
6.96752e-05     0.871317      99.2676 
0.000241580      2.27098      107.956 
0.000394913      2.64023      105.834 
3.43277e-05      1.06428      115.608 
4.44019e-05     0.536933      116.565 
0.000105216      1.07320      116.583 
0.000150400     0.240790      131.589 
0.000158390     0.868284      97.9480 
0.000421382      4.63733      109.924 
9.13775e-05     0.322129      97.0919 
0.000202497      1.16504      105.925 
4.05299e-05     0.545937      118.397 
7.37156e-05     0.529508      100.864 
1.95127e-05      1.10008      117.019 
0.000135769     0.742542      104.036 
1.90476e-05     0.582967      120.989 
0.000107543      1.10943      117.952 
0.000103897     0.300838      93.8616 
5.05517e-05     0.593248      122.605 
0.000325816      1.18945      106.606 
5.23739e-05      2.27730      108.441 
0.000106730      4.28904      109.617 
9.76504e-05     0.254690      135.000 
0.000214967     0.888355      97.7673 
1.71253e-05     0.643885      126.135 
6.65708e-05      3.96034      113.199 
0.000253376     0.247514     -14.0362 
7.86613e-05     0.506166      99.1272 
8.32862e-06     0.696607      129.142 
0.000288811      2.25171      108.115 
6.30826e-05      1.14625      119.233 
0.000111717     0.172194      125.422 
1.63500e-05     0.750414      131.757 
8.13857e-06      1.21473      107.248 
9.76815e-05      1.37920      106.857 
3.03787e-05      3.95240      112.929 
2.36066e-05     0.792690      132.967 
0.000121453      3.92616      112.782 
0.000199728     0.300155      90.0000 
7.79612e-06     0.806114      133.982 
8.97264e-05      3.50638      110.704 
0.000227578     0.865715      96.6199 
7.59355e-06     0.834763      134.017 
7.49431e-06     0.876557      135.000 
0.000155663      4.28228      109.362 
1.46979e-05     0.919648      135.893 
0.000146020      1.18335      120.484 
3.49593e-05     0.269397      138.048 
0.000261362      1.83652      128.364 
4.85592e-05      3.49953      110.405 
6.83024e-05      3.37532      114.132 
0.000169420     0.947759      135.834 
4.71092e-05     0.503350      96.8496 
1.39561e-05     0.161670     -60.2221 
8.11269e-05     0.604406      124.223 
0.000189431      1.39860      106.617 
0.000142009      2.61525      105.528 
3.84824e-05     0.226037     -45.0000 
0.000173570      3.40950      114.608 
0.000140687      3.61821      109.040 
2.52147e-05     0.284207      140.679 
1.86444e-05     0.128090     -141.183 
7.82924e-05      4.64401      110.151 
5.65139e-05     0.501338      94.5500 
0.000119325      3.99902      115.151 
0.000138207     0.266484     -13.0188 
6.19068e-05     0.300155      143.130 
0.000101954      3.47350      110.208 
6.91497e-05     0.240790     -41.5891 
7.29951e-05     0.962396      136.674 
8.07431e-05      4.31494      109.781 
2.20850e-05      1.43380      98.0326 
4.48620e-05     0.134233     -153.435 
5.78119e-05      4.65103      110.385 
4.68564e-05     0.616029      125.781 
8.70225e-05      1.19336      121.291 
6.19188e-05      1.41448      98.1430 
6.81833e-05      3.64304      109.230 
2.50018e-05      3.97038      112.819 
4.23662e-05     0.500168      92.3215 
4.12622e-05     0.576909      123.649 
5.55326e-05      4.65813      110.619 
4.14350e-05      2.64562      106.240 
5.03183e-05      2.25809      108.604 
3.66293e-05      3.45323      115.373 
3.19991e-05     0.282706      81.9129 
2.26900e-05     0.784114      109.337 
2.25393e-05      3.96285      112.559 
2.24166e-05     0.284207     -39.3213 
3.12642e-05     0.286260     -12.1052 
4.42630e-06      1.27132      109.301 
4.39449e-06      3.36709      113.817 
4.36878e-06      4.30813      109.527 
0.000311794      12.4372     -143.830 
0.000385084      9.28606      141.822 
0.000339993      4.01388      97.4439 
-0.000205290      11.0115      123.143 
-0.000247711      8.84355     -162.632 
-0.000383422      10.7774      71.4969 
-0.000145739      10.8077     -113.908 
0.000331430      5.81379     -55.6556 
0.000186258      7.01478     -35.3681 
-0.000163270      11.0222      123.228 
0.000230916      12.0286     -39.0600 
-0.000162116      5.67066      73.6130 
0.000108553      7.68920      34.7245 
2.82925e-05      5.98148     -141.786 
-0.000201460      2.89977      80.4670 
0.000148986      5.99741     -141.906 
-0.000214305      5.10308     -24.0549 
0.000260847      1.87228      113.277 
0.000126010      5.27239     -148.176 
0.000146009      12.4209     -143.775 
-0.000127375      10.8173     -113.768 
-0.000125048      10.1762     -158.678 
0.000148190      9.40565      17.7006 
-7.77301e-05      10.8556      35.4764 
-0.000101794      9.64535      163.745 
5.26472e-05      7.08675     -35.3494 
-0.000148259      9.48044     -161.298 
-7.08491e-05      9.96331     -122.956 
0.000141920      11.3866      116.160 
-0.000187482      8.41151     -23.3952 
-9.67668e-05      9.97434     -123.054 
0.000116712      11.8952     -59.0356 
-9.35254e-05      7.88137      131.089 
7.35675e-05      10.7304     -110.967 
-0.000204771      10.2838     -118.708 
2.50853e-05      5.85238     -55.4419 
0.000181267      7.71107      34.4293 
0.000113337      9.88115      102.152 
-0.000156491      4.08944      93.9246 
-9.27823e-05      3.68292      171.257 
-9.18228e-05      10.1698      2.47817 
4.76264e-05      6.30862      84.5396 
-0.000131498      8.86218     -162.670 
-8.93912e-05      10.8715      35.4168 
-0.000111416      1.43162     -151.648 
-6.64670e-05      5.67641      73.4168 
2.35389e-05      10.8322     -154.049 
-4.58197e-05      6.63840     -12.5281 
-6.71650e-05      9.70988     -60.3721 
0.000109327      7.84656     -87.6652 
-0.000130354      10.1486     -60.3529 
0.000130305      10.7494     -110.929 
4.48564e-05      6.57035      35.3346 
-0.000108063      10.8095     -113.673 
-6.53877e-05      9.81168     -32.0054 
-4.48836e-05      12.9855      47.9348 
8.70336e-05      9.24944     -48.2425 
-4.38181e-05      5.94219      75.7742 
0.000106710      6.31050      84.3633 
6.95838e-05      6.14694     -159.027 
-0.000109720      10.4401     -133.602 
6.43556e-05      9.23270     -9.72797 
-0.000106687      9.13019     -61.1873 
4.29836e-05      8.44818     -140.091 
-8.53468e-05      9.46196     -161.260 
2.21108e-05      9.33044      141.878 
-6.35268e-05      8.99583     -128.501 
6.32496e-05      10.8505     -154.096 
-4.30813e-05      7.11718      145.998 
-4.31163e-05      10.4846     -143.612 
4.22231e-05      11.3374      48.7192 
-2.16832e-05      9.86013     -147.759 
-4.16182e-05      10.1951     -158.719 
-6.27500e-05      13.0000      47.9924 
2.13773e-05      7.11439     -35.3916 
-4.14953e-05      13.7124     -131.690 
4.15611e-05      13.0633      137.295 
2.11667e-05      6.60168     -101.002 
-4.16285e-05      6.44151      80.8910 
4.15894e-05      10.3076      173.424 
-4.15253e-05      10.4261     -133.521 
-2.10169e-05      2.90306      80.0872 
-2.09318e-05      9.66481      163.778 
2.08207e-05      6.11536     -105.946 
2.07105e-05      6.58688      35.2326 
2.06773e-05      6.60558     -101.175 
2.06223e-05      9.38635      17.7382 
-4.06826e-05      10.4683     -143.547 
-4.06464e-05      14.1183     -136.492 
-2.05575e-05      9.88367     -147.984 
-2.05118e-05      8.39653     -59.0362 
-2.04575e-05      9.83596     -94.8972 
-2.03764e-05      7.10039      145.907 
2.03185e-05      7.48434     -160.161 
-2.02965e-05      7.70588      164.340 
2.02662e-05      11.1271      41.1365 
2.02352e-05      4.85754     -162.013 
2.01491e-05      10.7859     -142.002 
0.000268722      9.49603      65.4845 
5.56790e-05      8.19409     -104.852 
2.64431e-05      8.19911     -104.984 
0.000182051      1.03728      70.8704 
0.000248904      8.17954     -105.020 
-0.000272291      4.63843     -77.0429 
-0.000184283      10.9820     -65.5820 
6.91036e-05      6.50012      163.743 
0.000287862      9.20474     -47.9937 
-8.38756e-05      13.9398     -132.847 
-0.000178406      6.91558      148.240 
0.000155608      11.3518     -115.572 
0.000148770      8.59552      63.0189 
8.01574e-05      6.52454      163.620 
0.000210468      11.0347     -118.470 
0.000191371      12.7878     -126.799 
7.81982e-05      8.08687      39.2801 
0.000156115      8.63628     -77.1531 
-0.000189883      10.7898      40.8658 
-4.00767e-05      10.4610      24.7525 
-0.000175967      10.9388      56.4854 
-3.90201e-05      10.2116      104.634 
-7.00576e-05      8.57943     -154.751 
-7.24784e-05      5.89186      102.146 
1.94684e-05      8.50003      45.4757 
5.54981e-05      6.12148     -159.139 
8.83387e-05      6.77089      176.785 
-1.93162e-05      3.60551     -160.562 
-0.000110624      8.08145     -125.736 
3.73402e-05      10.0609     -141.377 
-9.50966e-05      11.4336     -30.0196 
3.60768e-05      9.64582     -44.1584 
-8.20306e-05      10.4525      24.6516 
1.86631e-05      8.10924     -79.7715 
-4.84662e-05      13.9265     -132.788 
-8.07097e-05      8.82118      105.518 
6.56524e-05      7.91506      16.7393 
6.91559e-05      9.50381     -45.3423 
1.84025e-05      12.4789      144.985 
-9.84212e-05      3.58641     -160.454 
1.81284e-05      9.50610      65.6463 
0.000122299      8.10567     -79.9124 
-0.000121646      11.0142     -29.3575 
-0.000164236      13.9249     -132.904 
0.000135064      6.23982     -105.241 
8.07269e-05      6.50582      163.572 
1.77901e-05      10.0686      21.9291 
-9.80247e-05      6.81665      60.2770 
9.24743e-05      8.07178      39.3677 
-0.000206610      10.1871      104.556 
-5.03911e-05      10.3657     -161.671 
3.01384e-05      8.49932      45.2862 
-7.95490e-05      6.92220      148.471 
1.73592e-05      10.0762     -141.446 
3.35388e-05      12.0883      37.2682 
1.70069e-05      12.4623      144.932 
7.42286e-05      11.2005      134.856 
-6.21826e-05      2.69997     0.429949 
1.68399e-05      6.10982     -158.894 
5.31979e-05      3.78542     -24.6752 
8.98224e-05      10.0798      21.7792 
1.66208e-05      11.3431     -115.480 
-0.000179763      10.9903     -65.4858 
3.26455e-05      12.5248      131.505 
-1.64721e-05      5.10298      165.471 
-1.64644e-05      11.5754     -29.0441 
1.64038e-05      7.95421      56.0686 
3.18277e-05      10.0736     -141.287 
-3.18644e-05      3.75535      5.19339 
-8.52004e-05      1.44706     -101.153 
-3.05604e-05      9.87559     -175.122 
8.77869e-05      11.3342     -115.615 
8.81394e-05      9.19119     -48.0875 
0.000188691      9.02586      80.4335 
-1.59331e-05      11.6029     -29.0830 
4.53251e-05      6.12873     -158.962 
-6.04030e-05      9.96453      76.7748 
-8.08782e-05      8.85605      117.431 
4.20251e-05      11.2586     -49.1783 
-7.00160e-05      9.14808      122.682 
-7.71515e-05      8.85140      105.731 
7.77267e-05      7.97102      56.1499 
0.000110490      12.5114      131.435 
1.54820e-05      8.51358      45.1893 
1.54797e-05      12.0541      37.9914 
-0.000162596      11.6206     -29.0345 
0.000232536      10.5958      107.240 
-2.92474e-05      3.03087      163.117 
4.27249e-05      6.76982      176.950 
1.51635e-05      1.03212      68.4152 
-2.71999e-05      10.4530      168.409 
-8.08722e-05      3.71765      5.55985 
9.25018e-05      11.3004     -49.0900 
5.28954e-05      11.1155     -132.157 
-1.48458e-05      1.61295     -107.322 
4.26581e-05      12.0666      38.0672 
8.99542e-05      9.31814     -137.957 
1.47611e-05      12.4457      144.878 
3.63010e-05      9.96241     -69.3086 
2.83009e-05      6.27118     -82.6717 
-2.69153e-05      10.3849     -161.706 
6.50283e-05      5.99750      94.3987 
-2.75400e-05      6.50020     -67.3781 
4.12838e-05      10.0788      138.942 
6.55200e-05      9.48958     -45.4293 
-8.15950e-05      8.29138     -108.128 
3.90041e-05      6.24389      160.343 
2.84280e-05      12.8000     -126.871 
-0.000177177      4.06744     -93.3845 
2.72822e-05      7.44059      66.0510 
-2.81593e-05      11.3702      30.6693 
4.20378e-05      8.65139      85.0940 
3.86426e-05      11.2822      151.981 
-3.85747e-05      5.92454      102.672 
0.000209052      12.8878     -51.7408 
0.000111060      9.96959     -69.1997 
7.85291e-05      6.48639      163.521 
3.99181e-05      1.40425      125.737 
-0.000122051      3.03989     0.381872 
-0.000102194      10.9281      56.5707 
1.40338e-05      8.02663      10.1879 
-1.39889e-05      2.51368     -164.308 
0.000110826      12.8599     -51.7579 
-1.39433e-05      10.4569      168.304 
6.69858e-05      12.8549      44.9361 
-0.000125101      10.1886      117.469 
0.000207846      9.64573      161.000 
-5.02490e-05      3.62803     -101.126 
4.75935e-05      8.01525     -17.1236 
-2.55671e-05      3.91425      168.802 
7.22389e-05      11.0440     -118.559 
1.35014e-05      5.45375      15.3097 
3.62664e-05      3.49251      129.892 
-2.58016e-05      9.18820      57.6221 
-4.88974e-05      11.1914      43.3346 
-7.28178e-05      10.8051      40.7955 
-3.71889e-05      3.50635     -152.854 
2.53043e-05      2.04263      18.2619 
-2.53904e-05      10.1241     -60.1419 
4.89475e-05      12.0632      38.2023 
8.14299e-05      8.66993      85.2339 
2.58744e-05      8.00669      10.2136 
1.31078e-05      7.75652      27.8195 
-1.30354e-05      3.00563      163.375 
-2.42669e-05      11.3534      30.7196 
0.000121132      9.06097     0.759217 
-5.46552e-05      6.95951      173.897 
1.29516e-05      7.52419     -100.411 
0.000142074      11.2919     -155.070 
-3.55045e-05      3.56803     -160.349 
-6.14298e-05      10.3440     -170.429 
-4.66764e-05      13.5623      45.1793 
-1.28572e-05      4.24216      24.5069 
-1.27979e-05      6.85221      147.518 
-5.75980e-05      5.67195      45.9970 
8.27431e-05      10.3457     -139.784 
4.68841e-05      4.59465      119.466 
-2.45499e-05      1.67542     -113.212 
-2.48598e-05      6.14784     -18.2005 
4.77154e-05      11.3159     -115.659 
0.000161355      6.93195     -166.484 
4.71558e-05      11.2320     -122.050 
-1.26887e-05      9.94926     -147.812 
2.48839e-05      5.44844      15.1042 
7.48881e-05      10.0635      138.867 
3.42775e-05      8.82007     -179.868 
0.000131156      10.1093      21.5890 
2.46279e-05      8.44720     -177.694 
-1.25308e-05      13.1224      42.4670 
2.30470e-05      3.34181     -11.0425 
4.61446e-05      8.22572      97.2638 
1.24330e-05      11.1320      136.092 
-0.000121090      13.9117     -132.845 
3.42109e-05      6.78931      176.959 
0.000107614      11.3066      47.0789 
-0.000106020      9.03053     -145.923 
3.08639e-05      11.3247     -115.752 
-3.54929e-05      6.83512      147.427 
-1.22219e-05      11.5853      128.552 
-6.65583e-05      9.96007     -147.713 
-3.30064e-05      8.47211     -142.482 
-3.47823e-05      13.1243      42.3444 
9.57054e-05      7.88896     -87.2413 
1.20628e-05      8.46208      149.615 
1.20514e-05      8.35362     -93.2957 
-1.20193e-05      2.51924     -163.865 
2.32426e-05      6.70922     -130.528 
0.000110442      8.02320      10.0508 
9.40597e-05      11.1601      136.087 
3.32413e-05      10.9340      111.685 
-2.28568e-05      10.1737     -66.3580 
-4.77859e-05      10.4692     -167.982 
-0.000144444      10.3640     -170.448 
-1.17246e-05      6.91791      174.023 
-0.000164770      6.70663      55.6965 
-4.29804e-05      11.3891     -30.0314 
4.30892e-05      9.73318      4.71412 
4.24659e-05      1.39251      125.060 
1.16567e-05      7.76538      27.6224 
4.48500e-05      6.46697      163.470 
5.10753e-05      12.4985      131.368 
-2.21186e-05      4.22373      24.6209 
8.49709e-05      8.22319      97.1237 
8.51539e-05      10.8582      150.179 
-7.04433e-05      11.5442      128.457 
-6.01746e-05      10.9876     -29.3187 
4.14630e-05      7.52788     -100.563 
1.14442e-05      6.79317      109.071 
