! Center RA: 12 21 31.69052,  Dec: +28 13 58.50019 (2000.0)
! Established model.
! Flux (Jy) Radius (mas)  Theta (deg)  Major FWHM (mas)  Axial ratio   Phi (deg) T \
! Freq (Hz)     SpecIndex
  0.127492      0.00000      0.00000 
 0.0661815    0.0202604     -90.0000 
 0.0146841    0.0202604      180.000 
 0.0103569    0.0286526     -135.000 
0.000534891    0.0397705      90.0000 
0.00401849    0.0600310      90.0000 
 0.0159639    0.0446338     -116.996 
 0.0199041    0.0802914      90.0000 
0.00168636    0.0828082      75.8378 
 0.0205103    0.0998015      90.0000 
 0.0153380    0.0633577     -108.650 
0.00473888    0.0600310     -90.0000 
0.00790089    0.0562440     -135.000 
0.00115137     0.101837      78.5245 
0.00414117     0.120062      90.0000 
0.000200016     0.121759      80.4216 
0.000355156     0.140322      90.0000 
0.00216879     0.200353      90.0000 
0.000438251     0.180093      90.0000 
0.00246923     0.219863      90.0000 
0.00276231     0.240124      90.0000 
0.000419863     0.220795      95.2649 
0.000743052     0.240977      94.8229 
0.000703749     0.259634      90.0000 
0.000115233     0.204262      101.227 
0.000733325     0.184432      102.453 
0.00152186     0.386554      111.285 
0.00109970    0.0828082     -104.162 
0.00178681     0.189835      108.435 
0.000179572     0.280627      85.8598 
0.00291932    0.0802914     -90.0000 
0.00185865     0.404795      110.283 
0.000921735    0.0633577      71.3505 
0.000523272     0.302778      82.4523 
0.000140021     0.411965      112.829 
0.000969939     0.304558      113.217 
0.000850694     0.286050      114.817 
0.000173187     0.319665      90.0000 
0.000499971    0.0286526      135.000 
0.000717606     0.295127      118.390 
0.000251271     0.466942      99.9013 
0.000159673     0.300155      90.0000 
8.13464e-05     0.486913      99.4914 
0.000465475     0.490508      101.740 
0.000533265     0.300838      86.1384 
0.000415480     0.322315      119.728 
0.000629025     0.509625      101.293 
0.000132042     0.526180      98.7772 
6.43140e-05    0.0633577      108.650 
0.000414342     0.332828      122.759 
0.000188946     0.529508      100.864 
0.000276203    0.0828082      104.162 
0.000407532     0.546212      98.4529 
0.000120116     0.455823      105.272 
0.000514148    0.0397705     -90.0000 
0.000268162     0.443026      108.466 
0.000595547     0.101837      101.476 
0.000819161     0.565518      98.1624 
0.000200180     0.461573      107.699 
0.000287330    0.0633577     -71.3505 
0.000288284     0.360880      123.723 
0.000664405     0.449587      110.825 
4.21029e-05     0.344213      125.596 
8.18062e-05     0.585580      97.8809 
0.000859084     0.583147      95.9087 
0.000190706     0.355922      128.150 
0.000383481     0.306099      78.6901 
0.000325961     0.467874      109.975 
0.00112563      1.15139      107.171 
0.000484118     0.873342      105.959 
0.00252997      7.14211      107.266 
0.00222845     0.887605      104.342 
0.000200667     0.372066      126.223 
0.000699092      1.17076      106.879 
0.00150859      3.21991      112.268 
0.000175855     0.368782      130.627 
0.000531079      2.73707      26.9303 
0.000187582      2.62439      147.755 
0.000105883     0.384386      128.660 
2.70562e-05    0.0828082     -75.8378 
0.000303994    0.0720098      56.4755 
0.000455120    0.0998015     -90.0000 
0.00162041      1.85802      104.334 
0.000145819    0.0848966      45.0000 
0.000235951      6.88030      113.288 
0.000904216      2.60791      147.526 
0.000194096      2.78632      140.837 
0.000261246     0.381773      132.849 
0.000530286      2.76392      26.1963 
0.00123494      2.89541      34.0237 
7.30946e-05     0.310708      75.0240 
0.00133183      6.88804      113.437 
0.000638377      6.53327      114.605 
0.000111971     0.329594      75.9005 
0.000302479      3.20187      112.400 
0.00109438      7.74796      110.868 
0.000311280      2.77064      140.572 
0.000443705      3.40212      92.0224 
0.000705976      7.51388      106.071 
0.000492580     0.381773      137.151 
0.000327662      4.91934      98.8890 
-0.000349685      2.17386      25.6275 
6.05003e-05     0.581411      93.9223 
0.000600872      2.78355      140.250 
0.000128158     0.334882      72.6613 
0.000226859     0.892839      105.601 
0.00104508      2.86253      116.565 
0.000528352      2.16911     -161.734 
0.000374294      2.71707      38.7216 
5.98564e-05      3.13451      95.4950 
8.03580e-05      2.82867      24.2125 
0.000699425     0.101837     -78.5245 
0.000854623     0.395830      135.000 
0.000283941      2.83896      23.6719 
0.000113322      8.98375      111.825 
0.000246667      4.77368      101.359 
9.15679e-05      3.15468      95.4597 
0.000204507     0.438632      114.241 
0.000506128     0.972963      170.545 
1.85278e-05      3.56662      146.664 
0.000856238      3.57779      146.393 
0.000472869      8.99130      111.945 
0.000360787      3.38070      91.3609 
8.33403e-05      4.77756      101.589 
0.000158891      3.15282      95.0932 
1.73097e-05     0.600651      91.9330 
-0.000774090      2.18237      26.0893 
7.87993e-05      8.67446      113.076 
6.19308e-05     0.947869      97.2769 
0.000413874      6.52486      114.443 
0.000479951      2.86775      22.9958 
0.000275057      2.57510      19.9874 
0.000915853      4.79667      101.542 
0.000551126      8.97320      111.992 
0.000118461      8.75018      111.169 
0.000103356      2.49309      138.258 
4.89203e-05      4.91625      98.6557 
2.91639e-05     0.600310      90.0000 
2.89647e-05      2.72979      39.0534 
1.47848e-05      8.65582      113.129 
0.000447051      2.19473     -161.398 
0.000591232      7.53263      106.030 
9.52946e-05      2.87999      116.391 
0.000709770      3.40147      91.6813 
2.79558e-05      1.16280      153.435 
0.000118031    0.0720098      33.5245 
0.000488806      8.10459      109.910 
0.000711222      8.74315      111.050 
0.000329926      2.47801      137.946 
0.00101325      3.90520      146.069 
3.93332e-05     0.945517      96.0590 
0.000110500      3.17225      95.0619 
0.000428906      1.17217      154.764 
0.000214857     0.107434     -68.2729 
6.55245e-05      2.87104      116.029 
0.000183134      6.20804      113.342 
2.60476e-05     0.600651      88.0670 
8.41377e-05      2.70188      38.9804 
0.000111729      2.54460      20.7063 
0.000237878     0.953723      170.352 
0.000400292      2.96054      89.2303 
1.23877e-05      2.88926      115.853 
3.54941e-05     0.601626      86.2097 
3.61738e-05      2.89878      115.318 
-0.000684672      7.32435      109.125 
0.000313075      2.99868      109.881 
8.17020e-05    0.0828082      14.1622 
0.000299732      2.91643      115.154 
0.000135379      2.49593      21.6287 
-0.00117372      7.09337      105.367 
4.24629e-05      3.59468      146.572 
0.000462512      1.52770      104.391 
0.000169044     0.121759     -80.4216 
0.000500355      1.84357      105.100 
-5.55017e-05      2.17796     -166.735 
0.000106337     0.344213      144.404 
0.000278844      2.72832      27.5024 
-0.000149670      3.33091      148.505 
8.32914e-05    0.0998015      0.00000 
4.18076e-05     0.603304      84.2894 
-0.000533737      1.42324      155.949 
0.000272799      6.52302      114.835 
-0.000568423      2.19768     -166.856 
0.000114561      6.21610      113.514 
1.06052e-05      7.67387      112.691 
2.04372e-05      1.18095      153.875 
4.00092e-05      2.55607      20.1426 
0.000223651      2.22044     -161.069 
1.03908e-05      8.76207      111.002 
0.000104912      3.19072      94.6674 
3.54550e-05      2.87130      116.913 
-0.000587430     0.959959     -178.791 
0.000227634      3.23867      112.132 
-0.000462717      3.31365      148.322 
0.000226746      3.06563      103.591 
9.85789e-06      7.65518      112.749 
0.000285138     0.933756      170.144 
-0.000599055      3.16606      30.7774 
2.90838e-05     0.141777     -98.2159 
0.000347200      2.82922      46.1498 
7.03391e-05     0.121759     -9.57842 
0.000544268     0.209153     -106.680 
7.51634e-05      7.66607      112.551 
-0.000221672      2.19136      26.5651 
2.60036e-05     0.605655      82.3819 
3.62188e-05      2.58391      39.9696 
0.000514217      2.92660      114.640 
0.000467372      1.18985      155.164 
8.99563e-06     0.332828      147.241 
8.67796e-05      2.24525     -160.760 
0.000267672      2.44990      137.967 
1.74125e-05     0.116465     -58.9729 
0.000203255      7.55210      105.988 
1.69894e-05     0.316312      71.6080 
-0.000127549      1.15406      117.915 
5.03109e-05      2.56842      40.2599 
0.000300902      4.80076      101.779 
2.43228e-05      2.54656      34.4346 
3.27511e-05      2.85325      117.097 
0.000233785      2.76800      139.982 
0.000120682      7.74077      110.728 
1.68049e-05      8.11151      110.044 
7.74143e-05      1.83839      104.490 
0.000349987      2.25201     -160.273 
1.65119e-05      2.88309      39.6566 
0.000149056      2.59084      147.286 
0.000182284      8.49103      109.972 
7.60794e-05      6.22421      113.685 
3.21281e-05      2.15586     -152.962 
4.66492e-05     0.128090     -51.1829 
0.000116477      8.12293      109.863 
3.88669e-05      2.47711      21.8014 
-0.000374612      1.13685      118.375 
-0.000280954      2.85902      17.9309 
1.60055e-05      6.53156      114.996 
0.000103855      2.55585      39.9262 
8.60774e-05      8.75483      110.878 
0.000169904      6.52249      115.230 
0.000199568      1.23980     -179.064 
2.28875e-05      2.18247     -152.721 
6.43590e-05     0.608549      80.5609 
0.000193138      1.20858      102.405 
4.30373e-05      4.63974      99.1759 
4.18572e-05     0.323277      68.1986 
5.14696e-05      6.53121      113.266 
-0.000350936      8.50100      113.426 
-0.000261419      7.30521      109.178 
4.77284e-05      2.56825      19.5626 
0.000244205     0.913801      169.927 
7.45248e-06     0.126477     -18.3275 
0.000117405      7.57158      105.945 
8.04860e-05      2.16515     -152.485 
9.82288e-05      2.94029      89.2250 
0.000158489      7.48819      108.050 
2.14485e-05     0.141777     -8.21587 
-0.000190873      3.28408      103.020 
7.23584e-06      2.89607      39.9652 
6.02367e-05      3.21017      94.6391 
7.10902e-06     0.128090     -38.8171 
0.000135829      6.54216      113.039 
8.99955e-05      7.65833      112.411 
2.03006e-05      2.91162      39.7091 
-0.000114591      3.20021      88.9252 
-3.84605e-05      7.90272      110.133 
-0.000141067      2.60208      135.000 
8.28303e-05     0.145849     -15.8239 
6.56790e-05      2.54290      39.5761 
9.44609e-05      8.01461      111.826 
-5.86457e-05      7.87071      112.719 
4.37391e-05      3.13097      117.382 
7.47007e-05      4.82060      101.730 
4.34931e-05      4.63666      98.9379 
-1.29764e-05      8.49326      113.306 
0.000111066      7.72252      110.779 
1.93379e-05      8.70582      112.560 
-9.89873e-05      7.45382      112.230 
3.09767e-05      6.23207      113.849 
3.07230e-05      2.97964      110.014 
4.39142e-05      7.59034      105.905 
1.88825e-05      8.89246      112.757 
3.65289e-05      2.71984      28.0781 
6.34594e-06      8.71680      112.386 
-2.45074e-05      2.20049      27.0369 
-7.29714e-05      7.87855      112.855 
-6.67068e-05      2.67522      118.096 
-5.48489e-05      1.58418      114.635 
5.43632e-05      2.53004      39.2225 
1.81386e-05      4.79027      96.4760 
7.23504e-05      2.25867     -159.807 
4.22688e-05      6.53083      115.384 
1.22131e-05     0.627803      80.8529 
1.82485e-05      8.72454      112.509 
5.40361e-05      8.86623      112.691 
4.79354e-05      1.20827      155.568 
4.19103e-05      7.60983      105.863 
2.39472e-05      2.85990      22.6222 
1.19670e-05      8.66380      113.252 
4.16261e-05      3.06227      34.6286 
2.96463e-05      1.22366      101.317 
-0.000891071      3.81039     -117.504 
0.000826096      8.46157      58.8262 
-0.000619823      10.0769     -121.197 
-0.000684926      7.17417     -57.6414 
0.000366504      9.10404      143.304 
-0.000496890      12.3256      141.456 
-0.000337184      9.89105     -2.66553 
-0.000595099      4.43100     -112.282 
-0.000339698      11.3473      118.416 
-0.000289970      3.69853      29.4724 
0.000280045      11.3847      147.481 
-0.000377046      12.9369      138.574 
-0.000382756      13.6764     -44.4665 
-0.000168938      6.93822      161.512 
0.000313916      9.32867      8.75387 
0.000219047      8.61599      31.3283 
-0.000656974      11.7171      52.2113 
-0.000359224      9.57761      52.1254 
-0.000409847      6.12773     -152.600 
-0.000258194      1.11107     -30.2537 
0.000358094      12.3555     -50.2532 
-0.000354470      3.04885      72.0377 
0.000159514      11.1895      62.8868 
0.000601126      10.5773     -74.6515 
0.000404005      10.9617      134.040 
0.000255054      13.1057      47.2252 
-0.000249917      6.94443      161.359 
0.000298581     0.903572     -62.2858 
0.000302076      10.4229     -34.2083 
-5.47222e-05      11.7176      50.3316 
-0.000156443      7.17631     -118.280 
0.000249677      9.08840      143.230 
0.000149573      6.76603     -177.629 
-0.000152389      10.0874     -121.296 
0.000194046      3.18245     -103.083 
-0.000389119      8.00463      14.7671 
5.29941e-05      4.84818     -116.462 
-0.000343749      9.10081      3.90521 
0.000198283      12.5633      50.6839 
0.000243010      4.02478     -10.3106 
-0.000149783      11.9694      36.0279 
-0.000371136      11.7156      50.1944 
5.26101e-05      10.6830     -54.5259 
-0.000242879      3.68090      29.6275 
0.000148878      5.61842     -164.729 
5.21304e-05      6.54250     -172.096 
-0.000291575      9.19959     -111.826 
0.000336362      11.5602     -118.074 
0.000100937      11.9641      135.000 
-0.000195837      9.85691      86.6264 
0.000194500      11.7812     -134.381 
-0.000196249      9.95480     -40.7634 
-5.13978e-05      10.7363      64.8660 
0.000146019      8.27650     -25.0153 
0.000195723      10.6947     -54.4376 
0.000147881      4.71122     -23.5149 
-0.000189601      3.91747     -134.790 
9.55792e-05      4.86565     -116.360 
-0.000141777      10.7277      64.9640 
-0.000189396      7.49900     -67.7440 
-0.000142144      11.0234      141.778 
9.50742e-05      4.47967      169.196 
0.000141671      5.16434     -2.44001 
-0.000140541      7.56060     -123.561 
-9.34756e-05      5.70006     -118.272 
0.000232582      11.2988     -154.522 
-0.000186215      13.6903     -44.4093 
9.44147e-05      13.6048      135.237 
0.000186277      6.92759      174.867 
-4.73711e-05      10.7445      131.075 
4.72181e-05      8.63330      31.2584 
9.24462e-05      11.3573      147.514 
4.69835e-05      5.48947      157.733 
4.69419e-05      11.9784      134.931 
-9.19257e-05      11.2586     -65.4369 
9.17491e-05      2.37756     -132.954 
-9.15368e-05      11.4800     -53.4305 
-9.17959e-05      10.8323     -51.5224 
-9.18452e-05      11.4873     -149.329 
9.06903e-05      10.4169     -161.181 
-0.000136331      10.6092      46.2208 
-4.63407e-05      11.8404      43.5620 
-4.62770e-05      14.1292      44.3696 
-4.61795e-05      9.60428     -175.941 
-4.60885e-05      6.39870      96.2816 
-9.03863e-05      11.3565      49.0698 
-4.58490e-05      9.49302     -71.8300 
-4.57129e-05      6.93259      165.123 
4.55589e-05      9.40503      141.303 
-4.55584e-05      5.68209     -138.566 
4.54433e-05      4.68486     -23.3950 
8.99339e-05      7.83222     -164.297 
4.49987e-05      3.98640     -159.747 
4.48627e-05      10.6665     -54.4628 
-4.47044e-05      14.0713      44.7126 
-4.45496e-05      6.41809      96.2625 
-4.44558e-05      7.51706     -67.8003 
-4.41485e-05      12.9515      138.631 
0.00159643      12.4041     -44.0196 
-0.000526212      8.84773     -104.133 
-0.000215579      8.62722      2.39279 
0.00141849      13.6914      134.054 
0.000296108      2.83704     -114.586 
-0.000328913      8.60772      2.39821 
-0.000156657      12.4320      53.2401 
-5.26472e-05      7.14205      134.659 
0.000277271      1.82471     -133.667 
0.000101335      8.85227     -87.0214 
5.12549e-05      3.37932     -106.499 
0.000221812      11.0325      43.9721 
-0.000422010      7.70626     -158.697 
-0.000267642      8.83707      69.1843 
0.000138020      13.2319      140.703 
0.000574214      13.6472      135.178 
-0.000354244      11.5106     -41.0563 
-0.000136264      7.17017      134.665 
0.000174260      8.67095     -46.2132 
0.000175501      3.36574     -106.928 
-0.000307983      10.9034      134.925 
0.000215808      8.85334     -86.8905 
4.77448e-05      7.02775      174.940 
0.000225663      11.6235     -118.243 
-0.000178799      7.72514     -158.752 
-0.000697419      12.4482      53.2959 
0.000250889      7.94645      50.8214 
0.000263428      6.84188     -7.72753 
0.000942288      13.2040      140.717 
0.000207887      2.55183     -111.132 
0.000204755      5.35919     -27.8101 
0.000217610      7.00757      174.926 
0.000925808      9.23943      116.896 
-8.64107e-05      7.87660      12.1653 
-0.000158159      5.72582     -50.5252 
-0.000506845      11.1831     -148.156 
4.38897e-05      10.5797     -165.437 
-8.24500e-05      1.80179     -98.9367 
0.000124055      6.64592     -56.7890 
-0.000122705      10.8145      131.174 
0.000400676      10.5624     -162.251 
0.000123401      8.12388     -29.6576 
8.35950e-05      9.38473      169.934 
-4.26776e-05      11.2118     -41.1657 
0.000228578      9.40652      28.5809 
8.17500e-05      7.08020     -8.61274 
-0.000188967      12.8502      132.854 
-4.20983e-05      1.84874     -95.5903 
0.000264623      3.80148     -71.2789 
-0.000120963      10.4533     -150.295 
0.000151573      9.98939     -148.094 
0.000525643      2.81931     -114.751 
-4.13124e-05      8.85251     -104.255 
0.000427758      11.6140     -118.155 
0.000662069      9.39174     -26.2928 
-0.000183651      9.82445      143.526 
-0.000187299      9.40789     -106.930 
-0.000205654      6.93410     -99.4613 
0.000184666      8.45867      23.1078 
-4.05380e-05      10.5148     -16.9193 
-0.000117509      4.03167     -46.4027 
-7.71656e-05      1.86706     -94.9109 
0.000253802      6.82255     -7.74956 
-3.95749e-05      7.55626     -60.8564 
0.000216188      10.9338     -67.7510 
0.000146447      7.07877      175.787 
-0.000241593      10.7121     -151.571 
-3.93760e-05      9.46488     -19.8888 
-3.92569e-05      11.2398     -41.1780 
-0.000582209      10.5089     -16.8137 
-0.000544992      10.0266      100.456 
3.89137e-05      2.13573     -135.384 
-3.88875e-05      11.7281      50.1212 
-3.88473e-05      10.5881      164.440 
-3.87579e-05      7.87251      12.0265 
0.000483410      9.38816      169.816 
0.000277785      4.21971      172.099 
0.000303839      8.98666      124.116 
-0.000108609      5.99351      27.4184 
7.44503e-05      10.2472      65.4356 
9.51562e-05      9.86114     -30.4658 
0.000234898      11.2889     -154.389 
-0.000141767      12.7261      37.9132 
7.34110e-05      3.20273     -96.8087 
0.000656082      13.2525      49.6528 
0.000260159      10.3753      153.187 
-0.000138804      9.43894     -19.8150 
-3.70813e-05      11.7255      49.9818 
-0.000256605      9.39226     -62.6161 
3.69252e-05      9.61160      79.8148 
-3.68932e-05      10.4986     -150.309 
-7.14304e-05      8.46071     0.813084 
-7.09513e-05      7.48024     -99.3877 
-0.000319074      11.4959     -41.1201 
3.66968e-05      9.68911      177.514 
6.98989e-05      10.4863      154.950 
-0.000129058      10.3545     -150.366 
0.000100731      4.66304      69.9350 
-3.64864e-05      10.9354     -51.0105 
0.000101732      6.97807      64.5372 
-7.04542e-05      12.6981      37.8999 
0.000361382      5.08193     -25.1574 
7.06216e-05      9.26582     -24.0741 
3.62178e-05      9.21254      116.845 
-3.61777e-05      7.85343      12.0561 
-0.000338108      11.7125      50.0577 
-0.000224992      13.7333     -44.2340 
0.000168490      9.63080      79.8353 
