! Center RA: 12 21 31.69052,  Dec: +28 13 58.50011 (2000.0)
! Established model.
! Flux (Jy) Radius (mas)  Theta (deg)  Major FWHM (mas)  Axial ratio   Phi (deg) T \
! Freq (Hz)     SpecIndex
 0.0564260     0.101837     -78.5245 
0.000871216    0.0286526     -45.0000 
 0.0211968     0.121759     -80.4216 
 0.0113481    0.0202604      0.00000 
0.00332029    0.0397705      0.00000 
 0.0232364    0.0286526      45.0000 
0.00481121     0.120062     -90.0000 
0.00702835     0.180093      90.0000 
 0.0119294     0.140322     -90.0000 
0.00279998     0.159832      90.0000 
 0.0113941     0.161111      97.2243 
0.000533958    0.0446338     -26.9958 
0.00301375     0.181229      96.4188 
0.000486180     0.200353      90.0000 
0.000950542     0.219863      90.0000 
0.00319922    0.0600310      90.0000 
0.00109631     0.240124      90.0000 
0.00151868     0.121759      99.5784 
0.00226690     0.141777      98.2159 
0.000741952     0.259634      90.0000 
0.000518416    0.0633577     -18.6495 
0.000513458     0.280627      94.1402 
0.000610127     0.302778      97.5477 
0.00122994    0.0896014     -26.3505 
0.00203665     0.325253      100.636 
0.000275671    0.0397705      90.0000 
0.000672388     0.107434     -21.7271 
0.00215780     0.349279      103.290 
0.000336657     0.116465     -31.0271 
0.00229834     0.134233     -26.5651 
0.000332995     0.345185      100.015 
0.000213399     0.201375      95.7743 
0.000159982     0.365154      99.4623 
0.000857470     0.164706      103.973 
0.00110943     0.443806      97.7739 
0.000151051     0.184432      102.453 
0.000635917     0.533698      103.001 
0.000664741     0.240977      94.8229 
0.000945158     0.159832     -90.0000 
6.89912e-05     0.260423      94.4620 
0.000130726     0.329594      104.100 
0.00123352     0.558204      104.559 
0.00217195      2.21395      108.435 
0.000774686     0.286260      102.105 
0.000752520     0.266484      103.019 
0.000265350     0.404436      98.5360 
9.35085e-05     0.247514      104.036 
0.000621554     0.424483      98.1301 
0.000319933     0.223431      100.253 
0.000181441     0.204262      101.227 
8.92598e-05     0.126477      108.327 
8.78495e-05     0.107434      111.727 
0.000255700    0.0896014      116.350 
0.000244853     0.243395      99.4042 
0.000404964    0.0446338      116.996 
0.000230495    0.0286526      135.000 
0.000834263     0.582160      105.935 
0.000221709    0.0202604      180.000 
0.000439234     0.388092      101.940 
0.000351889    0.0397705     -90.0000 
0.000691871     0.369026      102.567 
0.000201710    0.0633577     -71.3505 
0.00114848     0.607364      107.248 
0.000858822    0.0828082     -75.8378 
0.000424606     0.632861      108.456 
0.000763852     0.107434     -68.2729 
0.000349090     0.373757      105.487 
5.06202e-05     0.683639      110.563 
0.000245939     0.709549      111.464 
0.000146629     0.407936      101.351 
0.000187768      2.20128      109.102 
0.000500205     0.735213      112.377 
9.36101e-05     0.427819      100.817 
4.67655e-05      2.22044      108.931 
0.000808802     0.126477     -71.6725 
0.000218108      2.20774      109.580 
0.000315061     0.354273      106.362 
8.56028e-05     0.743162      113.822 
8.39880e-05      2.22619      107.781 
0.000415709     0.761740      113.206 
4.14172e-05    0.0802914      90.0000 
0.000275941      2.19560      110.256 
0.000238951     0.220795      95.2649 
0.000451774     0.463888      97.4354 
7.95812e-05      2.24549      107.624 
0.000700587     0.769637      114.541 
0.000219674      2.23966      107.148 
0.000915999     0.145849     -74.1761 
0.000385679    0.0446338      63.0042 
0.000144982      2.20243      110.732 
7.08701e-05      2.78393      109.739 
0.000172496      2.77157      110.260 
0.000732347      2.18419      110.913 
0.000474638     0.461703      94.9415 
3.45832e-05      2.82664      108.560 
0.000189782     0.334882      107.339 
0.000262374     0.788112      113.929 
0.000315254      2.25903      106.996 
0.000101147      2.84586      108.430 
3.30159e-05      2.87151      108.686 
3.28038e-05      2.77865      110.652 
3.26190e-05      2.86509      108.302 
0.000188930      2.75970      110.800 
0.000217944      2.89000      108.562 
0.000287269      2.40931      108.881 
3.13579e-05     0.563425      106.480 
0.000486072     0.958607      113.334 
9.11514e-05    0.0633577      71.3505 
6.16755e-05     0.796545      115.261 
0.000521965      2.76696      111.193 
0.000451673      2.91568      108.813 
0.000424621     0.161111     -82.7757 
0.000350410     0.778270      115.898 
5.71363e-05    0.0828082      75.8378 
0.000322041     0.360505      109.453 
0.000334777     0.460433      92.5220 
0.000257700      2.23377      106.651 
0.000495146     0.164706     -76.0271 
8.03998e-05     0.481892      94.7340 
0.000172396     0.101837      78.5245 
0.000641072      2.19150      111.408 
0.000248319     0.966811      114.437 
0.000143863      2.43507      109.178 
0.000486210      2.77407      111.568 
0.000375371     0.787330      117.224 
4.72233e-05     0.581230      116.532 
0.000513706     0.152624     -23.1616 
0.000135377     0.480675      92.4157 
0.000398439      2.94118      109.045 
0.000224609     0.984607      113.967 
0.000328307      2.22805      106.152 
0.000108303     0.459987      90.0000 
4.42972e-05     0.590559      118.291 
0.000380495      2.44180      109.627 
0.000121975     0.121759      80.4216 
0.000250187      1.02177      66.9561 
0.000264121     0.572799      119.251 
0.000647054     0.993009      115.035 
0.000323938     0.480248      90.0000 
0.000520662      1.89846      110.355 
0.000953433      1.01401      68.0096 
0.000305790     0.796445      118.473 
0.000365332      2.78158      111.956 
0.000707439     0.178866     -26.6725 
3.74700e-05     0.141777      81.7841 
0.000255769      2.94785      109.417 
0.000957012     0.181229     -83.5812 
0.000101883     0.107434      68.2729 
0.000393907      2.21710      111.711 
0.000221267     0.480675      87.5843 
9.28999e-05      2.22270      105.669 
0.000151215     0.582967      120.989 
4.71050e-05     0.585580      97.8809 
0.000108458     0.806301      119.738 
0.000105259     0.460433      87.4780 
0.000311068      3.00464      101.905 
0.000192037     0.126477      71.6725 
4.57280e-05      2.93559      109.922 
1.54252e-05      2.85239      104.628 
0.00132002     0.170734     -20.5855 
8.45613e-05     0.367749      112.431 
0.000182227     0.957327      100.843 
0.000145839      2.78922      112.342 
4.37232e-05     0.184432     -77.5470 
0.000189175      2.84734      104.234 
0.000165877      5.55429      147.794 
2.94302e-05      2.94230      110.279 
0.000228691      1.00142      116.047 
7.06290e-05     0.583147      95.9087 
8.62562e-05      2.98482      101.985 
0.000562237      1.89151      109.779 
2.87001e-05      2.93043      110.788 
7.04093e-05     0.816540      120.973 
0.000146399      1.03223      81.0923 
0.000107642      2.07457      109.130 
4.18901e-05      2.19777      105.303 
0.000109073     0.821137      87.2239 
0.000304852      2.44842      110.057 
0.000108644      2.93768      111.157 
6.64231e-05     0.920997      124.376 
0.000136595      2.19251      104.792 
8.94128e-05      2.79670      112.712 
0.000216222     0.566331      122.005 
0.000229194     0.461703      85.0585 
5.19901e-05     0.581411      93.9223 
0.000169757      2.94478      111.511 
0.000222635     0.932586      125.404 
0.000157696      5.57145      147.905 
9.04528e-05      2.60336      111.633 
0.000503686      1.08805      107.085 
0.000150485     0.600651      91.9330 
1.24737e-05     0.181229      83.5812 
9.29210e-05      2.06826      108.619 
3.52831e-05     0.394056      113.929 
0.000190508     0.822367      85.8138 
0.000173278      1.02938      82.1652 
0.000451968      2.84242      103.838 
6.71887e-05      5.58184      147.735 
0.000256512      1.01048      117.079 
0.000109007      2.80458      113.094 
0.000123906     0.116465      58.9729 
0.000240034     0.201375      84.2257 
0.000198224      2.22439      112.178 
6.54970e-05      2.16375      103.906 
3.29037e-05      2.06348      106.326 
0.000168112      2.95227      111.877 
3.28591e-05     0.600310      90.0000 
0.000257445      3.13342      104.040 
0.000142020     0.624998      82.6190 
1.07446e-05      2.07148      105.119 
6.62775e-05     0.402700      116.565 
0.000190426     0.576909      123.649 
5.09849e-05      2.13927      103.510 
0.000202498     0.959802      125.678 
6.49517e-05      2.05787      105.785 
0.000143094      2.81259      113.474 
0.000311022     0.840624      87.2883 
0.000145850      5.59898      147.846 
1.96066e-05      2.11506      103.124 
4.62010e-05      2.06188      108.085 
0.000128577      1.02682      83.2853 
0.000491590      1.18188      92.9115 
8.37292e-05      2.97108      111.732 
0.000134904      2.13479      103.001 
0.000312682     0.463888      82.5646 
0.000158650      2.61090      112.046 
6.17694e-05      2.85753      103.361 
1.83938e-05      5.58862      148.015 
6.02649e-05     0.134233      63.4349 
0.000129550      5.51192      148.500 
6.83606e-05      2.97864      112.094 
0.000223831      1.88475      109.200 
7.38147e-05      2.25082      112.461 
4.96840e-05      3.14645      112.816 
0.000186756      2.53666      104.143 
0.000128064     0.588377      125.291 
0.000122937     0.412159      119.085 
0.000196584      2.11055      102.588 
0.000125082      2.45544      110.501 
5.50758e-05      2.05568      107.549 
0.000441421      3.15407      113.143 
1.59140e-05     0.944023      126.369 
0.000191088      1.01986      118.092 
0.000114130     0.128090      51.1829 
0.000224661      2.82042      113.837 
0.000210332      1.09418      108.099 
0.000225489     0.627803      80.8529 
5.97058e-05      2.95988      112.241 
0.000170131     0.971758      126.649 
9.31120e-05      2.23211      112.660 
5.18908e-05      1.90585      118.169 
0.000451488      1.91550      118.704 
2.14440e-05      2.04988      107.029 
0.000123936      5.52920      148.610 
7.06812e-06      2.05265      105.261 
8.90870e-05     0.623033      137.587 
0.000154876      2.96732      112.590 
1.34520e-05      2.04741      104.714 
0.000296792      2.10623      102.051 
3.93195e-05     0.201375     -84.2257 
5.07344e-05      2.04404      106.486 
0.000123840      3.13821      104.385 
0.000200639      2.55631      104.032 
0.000239164      2.83782      103.456 
0.000228836      2.25864      112.936 
0.000118021      5.60979      147.670 
6.79767e-05     0.604406      124.223 
0.000262853     0.204262     -78.7726 
7.73478e-05     0.421988      121.401 
0.000105021      1.87842      108.638 
1.75153e-05     0.799236      121.720 
1.80080e-05      1.21183      127.629 
0.000184203      1.20137      92.8642 
7.05091e-05      2.03838      105.940 
0.000202003      1.05225      81.2632 
9.02629e-05      1.22794      127.052 
0.000186819     0.638138      138.814 
4.64628e-05      2.46261      110.942 
0.000202631     0.446997      79.6521 
0.000270903      1.10064      109.102 
4.61796e-05      1.02856      116.565 
5.42581e-06      2.59213      112.214 
0.000161374     0.788112      66.0707 
0.000347635      1.24025      127.799 
1.99838e-05     0.782708      122.471 
8.06850e-05      2.59986      112.627 
0.000258843      2.82867      114.212 
0.000122582      2.03311      105.411 
8.02486e-05      3.16208      113.481 
9.67559e-05     0.593248      122.605 
8.20322e-05     0.394577      120.515 
7.72236e-05      1.87205      108.050 
0.000122561     0.772836      111.233 
9.24413e-05      1.89720      122.515 
0.000172960      2.10224      101.531 
6.92788e-05      1.01966      115.547 
6.24540e-05      3.15308      103.950 
2.91126e-05     0.839927      88.6178 
6.79178e-05      2.08466      118.041 
0.000122080      3.17202      113.005 
0.000109515      1.20255      93.8283 
1.25476e-05     0.793353      123.660 
5.77286e-05      2.94932      112.735 
2.67629e-05     0.956176      127.347 
7.28704e-05      1.86587      107.458 
9.46408e-05      2.24000      113.138 
1.53329e-05      2.02782      104.859 
8.21812e-05      1.90671      99.6514 
1.50282e-05      2.46965      111.365 
2.28915e-05      3.20494      101.520 
3.19607e-05     0.983986      127.595 
3.29329e-05     0.226037     -45.0000 
3.28059e-05     0.450910      77.2126 
1.82310e-05     0.820423      88.5849 
1.79681e-05      3.20905      101.875 
1.42695e-05      1.88078      122.834 
3.62208e-06     0.631341      79.0373 
1.82632e-05      2.17356      102.765 
3.50908e-06      1.88521      107.274 
0.000223398      1.34736      161.827 
0.000130118      1.35358      161.043 
0.000319592      1.34166      153.421 
0.000148888      1.32813      161.555 
4.64673e-05      1.89776      118.997 
2.36148e-05      1.81983      123.343 
3.02000e-05      1.89132      107.860 
2.22347e-05      1.80294      123.697 
2.18628e-05     0.652947      139.942 
7.27153e-06     0.796545      64.7385 
7.23352e-06      5.61551      147.952 
7.17184e-06      1.04946      82.3160 
0.000106210      3.80524      140.112 
0.000235337      3.79029      139.923 
0.000127153      3.81778      139.887 
0.000339383      1.95877      147.929 
3.15721e-05      1.98671      147.745 
0.000263646      2.56153      137.208 
7.12398e-05      2.21277      139.401 
0.000153291      2.42662      98.5360 
0.000106862      1.15984      165.002 
2.41350e-05      2.88385      99.9795 
8.05456e-05      2.19743      139.057 
2.94213e-05     0.968601      128.299 
2.96888e-05      2.88743      100.375 
9.21149e-05      3.31697      110.846 
2.82082e-05      5.50136      148.680 
6.28623e-05      1.78984      129.556 
2.07768e-05      2.45310      114.064 
3.40946e-05      3.21312      102.215 
2.73963e-05      2.90662      100.306 
2.72481e-05     0.331336      154.944 
2.02669e-05      2.11209      118.268 
1.35141e-05      2.83704      114.586 
6.86232e-06      2.15414      138.771 
2.02546e-05      1.88427      99.1660 
6.77465e-06      1.33443      160.760 
6.74922e-06      2.94183      112.385 
1.33422e-05     0.805400      63.4349 
1.33211e-05      2.42369      98.0624 
6.69373e-06      1.83063      123.853 
0.000537833      9.71803     -131.663 
-0.000466521      8.82253     -139.415 
-0.000466209      9.80649     -6.67475 
0.000510786      10.9530     -53.9882 
0.000243003      5.31403      160.199 
-0.000123383      4.92897      99.5785 
0.000195157      7.92049     -12.2468 
-0.000178014      4.90900      99.6178 
0.000294854      7.80403     -148.306 
0.000252222      6.11023      115.394 
-0.000212783      9.77457     -15.9110 
-0.000351826      6.59218     -104.584 
0.000351988      8.57006      101.439 
0.000349853      8.84745     -146.527 
-4.00657e-05      4.93226      99.8020 
0.000380015      12.0479     -38.2596 
0.000346100      13.7510     -41.9919 
-0.000346350      8.19927      151.122 
-0.000450835      6.05766      16.1024 
0.000278441      6.31942      124.947 
-0.000242702      1.27323     -46.2656 
0.000272328      7.74647     -175.260 
0.000211279      4.90757     -44.8327 
-0.000180753      9.79406     -15.8785 
-0.000334892      5.61028     -109.145 
-0.000232641      8.50437     -32.9062 
-0.000364164      10.0821     -132.107 
0.000139583      10.3908     -76.4174 
-0.000133370      8.92391     -108.558 
-0.000259023      9.85982     -61.9293 
-6.94040e-05      8.76616     -4.44798 
0.000102208      10.9321     -117.691 
-0.000163386      6.18050     -153.687 
0.000226567      9.15120     -112.079 
0.000102564      5.54554     -43.5416 
-3.47793e-05      11.1763     -143.296 
-0.000127426      12.7861     -50.4579 
0.000287160      9.73151     -131.752 
-0.000224045      6.88520     -87.8389 
0.000129732      4.45582      49.7336 
-0.000160692      7.84444     -153.827 
9.69507e-05      7.91072      32.9243 
0.000128012      10.0319     -83.1307 
-0.000130645      10.2778      106.391 
0.000159990      14.0299     -45.5764 
0.000251654      10.8724     -143.679 
0.000189076      6.31383      109.813 
-3.35210e-05      9.94101     -114.863 
-9.49984e-05      11.1884     -143.212 
0.000187672      11.0772      56.3401 
3.30517e-05      13.4420      48.1951 
-9.58673e-05      8.91456     -59.2339 
9.40245e-05      9.15684      176.495 
6.28925e-05      5.77697     -9.36689 
0.000137770      5.56025     -43.3978 
0.000123884      13.1612     -40.6856 
-6.26994e-05      11.5944      58.2572 
-9.23416e-05      6.90678     -82.0125 
6.20163e-05      8.17123     -161.740 
6.17601e-05      10.4192     -76.2300 
-9.11196e-05      5.51204     -118.145 
6.16622e-05      11.8869     -147.993 
-6.11169e-05      7.84406      55.7049 
6.12197e-05      6.76690      177.458 
-6.11609e-05      10.4489      25.3873 
6.05937e-05      8.77376     -132.966 
-0.000194517      9.37992     -179.757 
6.05934e-05      7.82064     -148.381 
-9.00633e-05      12.5736      45.7085 
6.00102e-05      8.51879     -144.559 
-6.05064e-05      9.92111      90.8104 
-6.00588e-05      10.2833      106.495 
3.02831e-05      7.13184      106.454 
5.92770e-05      13.8875      134.884 
-3.00586e-05      9.01753      93.5591 
2.98601e-05      1.21679     -64.6992 
2.96778e-05      12.6914     -133.275 
-2.96930e-05      8.95234     -59.0815 
2.95480e-05      14.0435     -45.5196 
-2.94659e-05      9.80171     -1.05279 
2.94663e-05      9.93110     -72.6576 
0.000102827      8.85432      60.9478 
-2.93070e-05      8.54074      179.330 
2.90264e-05      8.96903      127.662 
-0.000183049      9.16076     -179.249 
-0.000165668      6.64367      141.231 
-6.55220e-05      9.14050     -179.247 
0.000198482      9.28001     -128.526 
6.64600e-05      9.22778     -16.2347 
-9.09525e-05      2.46746      70.1047 
5.95266e-05      7.13254     -12.6341 
-0.000259468      2.04352     -139.766 
6.54348e-05      9.19744     -136.937 
-0.000102794      12.9972     -44.4386 
8.41403e-05      8.84134     -46.3755 
-0.000138831      11.6756     -128.322 
4.27409e-05      7.15231     -12.5986 
6.84838e-05      5.41181      37.0367 
0.000130690      13.2983      139.820 
-0.000116145      10.3751      118.938 
-9.11080e-05      8.85836      38.2164 
-2.13163e-05      8.83092      64.9440 
0.000110406      5.42800      36.9079 
-3.90551e-05      9.15329      165.966 
-3.98056e-05      1.59247      78.4200 
-2.08227e-05      2.44842      69.9434 
-3.93348e-05      9.34967      27.9348 
-3.99240e-05      8.84927      64.9995 
-0.000117945      5.68010     -101.785 
0.000247030      9.68426      20.6818 
-0.000126015      8.98817     -157.773 
6.52017e-05      7.87674      33.0845 
6.98189e-05      9.90716      80.1217 
5.67792e-05      9.18319     -136.854 
2.00313e-05      8.52081     -175.960 
-0.000269939      2.46089      70.5319 
-1.99414e-05      12.7855     -44.2391 
-0.000138244      9.39466      30.4403 
5.41855e-05      8.96788     -150.174 
-0.000168948      8.11081     -65.8394 
-8.57887e-05      9.92175      91.0401 
-1.94966e-05      1.98671     -57.7446 
8.17424e-05      9.57655     -147.538 
-5.21639e-05      9.16105     -179.122 
-0.000116119      13.2180     -138.374 
-8.78531e-05      4.03284     -34.0863 
8.03336e-05      4.75301     -83.2363 
-1.88601e-05      6.65948      141.340 
-3.67151e-05      8.84073      65.1185 
-0.000270922      7.47752     -26.3568 
8.73004e-05      10.0169     -157.581 
1.86010e-05      5.07263     -154.549 
-6.86670e-05      2.06896     -150.469 
-6.83978e-05      5.94061      126.095 
1.82959e-05      8.85534     -46.2807 
-1.80787e-05      10.0783      121.863 
-6.69955e-05      11.4645     -147.974 
5.06603e-05      9.03891     -41.5909 
-1.79686e-05      8.07722     -64.0039 
-0.000136684      6.95822      172.571 
3.48043e-05      2.85980     -106.666 
0.000347396      10.3663      104.410 
-6.89414e-05      9.85233      145.504 
-1.76275e-05      10.3928      118.884 
-0.000117958      8.55518      138.221 
-8.04334e-05      11.2163     -44.0621 
