! Center RA: 12 21 31.69052,  Dec: +28 13 58.50019 (2000.0)
! Established model.
! Flux (Jy) Radius (mas)  Theta (deg)  Major FWHM (mas)  Axial ratio   Phi (deg) T \
! Freq (Hz)     SpecIndex
 0.0713584      0.00000      0.00000 
 0.0156736    0.0286526     -45.0000 
0.00819826    0.0446338     -26.9958 
0.000434194    0.0562440      135.000 
0.00394725    0.0848966      135.000 
0.00128222     0.100252      143.216 
0.00265426    0.0720098     -33.5245 
0.00160710    0.0562440     -45.0000 
0.000333920     0.113549      135.000 
0.000982150    0.0202604      0.00000 
0.00363803     0.100252      126.784 
0.00134992     0.279894      90.0000 
0.000348048     0.128090      128.817 
0.00259268     0.116465      121.027 
0.00159270     0.280627      94.1402 
0.00145033     0.240977      94.8229 
0.000156920    0.0720098      146.476 
0.000307842     0.243395      99.4042 
0.00101732    0.0633577      161.350 
0.00125708     0.134233      116.565 
0.00114165    0.0397705      180.000 
0.00230161     0.260423      94.4620 
0.00284646     0.145849      105.824 
0.00106481    0.0286526     -135.000 
0.00112746    0.0446338     -63.0042 
0.000431451     0.302778      97.5477 
0.000109705    0.0828082      165.838 
0.000216152     0.164706      103.973 
0.00120050    0.0896014      153.650 
0.000104888     0.184432      102.453 
0.000686239     0.322129      97.0919 
0.00121011     0.223431      100.253 
0.00287604    0.0720098     -56.4755 
0.00181461     0.126477      108.327 
0.000811923     0.204262      101.227 
0.00170237     0.345185      100.015 
0.000284750     0.209153      106.680 
0.00398148     0.365154      99.4623 
0.000836663     0.161670      29.7779 
0.000480644     0.369026      102.567 
0.000276457     0.101837      168.524 
7.36315e-05     0.107434      158.273 
0.00175806     0.250509      118.638 
0.000409295    0.0998015      90.0000 
0.00130258     0.101837      101.476 
0.000719074     0.342244      96.6731 
0.000668922    0.0828082      104.162 
0.000175540     0.282706      98.0871 
0.000442698     0.262662      98.7088 
0.000806485     0.907248      104.025 
0.00263009     0.100252     -53.2159 
0.000374662     0.582160      105.935 
0.000534286     0.887605      104.342 
0.000582669      1.15578      113.453 
0.000102551     0.388092      101.940 
0.000293425     0.101837      78.5245 
9.68928e-05     0.244605      125.006 
0.000238877     0.840993      107.982 
0.00167036     0.577108      104.072 
0.000392765      1.12917      112.919 
0.000266480     0.107434      68.2729 
0.00171086     0.821746      108.418 
0.000305980     0.256296      128.581 
0.000497742      1.16399      114.368 
8.25881e-05     0.116465      58.9729 
0.000263891     0.128090      51.1829 
0.000113381     0.141141      135.000 
6.93015e-05     0.156126      140.265 
0.000401348     0.921752      102.554 
0.000161662     0.141141      45.0000 
6.77281e-05    0.0848966     -45.0000 
6.63534e-05     0.223834      63.5208 
0.000192200      1.17217      115.236 
0.000218902     0.220795      5.26495 
6.47918e-05     0.144435      146.227 
0.000234904     0.233573      59.0678 
0.000119440     0.161670      150.222 
6.13250e-05     0.926189      103.732 
0.000168837     0.269397      131.952 
5.98819e-05      1.18095      116.125 
2.93753e-05      1.22574      118.244 
0.000821353     0.240977      4.82291 
8.38764e-05      1.12172      112.001 
0.000371472      1.23546      119.072 
0.000132636     0.178866      153.327 
0.000101574     0.496341      130.094 
0.000100836     0.945882      103.441 
5.23551e-05     0.216445      56.3099 
0.000273119      6.50020      104.248 
6.93695e-05      1.08152      109.453 
0.000747344      3.32273      104.290 
5.06007e-05      6.48355      107.596 
0.000278939     0.244605      54.9936 
0.000587680      6.50214      107.544 
0.000167975      1.06333      94.3305 
8.76144e-05     0.156126      39.7351 
0.000228761      1.07494      108.435 
0.000128125     0.283342      135.000 
0.000541074      1.24505      119.856 
0.000111549     0.197181      155.971 
0.000752983      3.07442      98.6048 
0.000214617     0.509625      131.837 
0.00105352      9.23489      109.218 
0.000193456      6.47577      104.125 
0.000677315      7.43266      110.971 
0.000771418      1.06498      95.3772 
0.000101584     0.941538      102.286 
0.000382342      6.49542      104.081 
0.000298167      6.72728      115.347 
0.000308578     0.256296      51.4188 
0.000694805      6.71863      115.191 
0.000115232     0.215843      158.162 
0.000223406      5.75387      112.910 
5.86090e-05      1.04313      94.4145 
0.000366233      6.32348      113.483 
0.000132713      3.32804      112.245 
0.000366854      8.86880      111.705 
0.000368481      8.13360      113.476 
3.64956e-05      6.09702      108.551 
0.000289375      5.72733      112.802 
0.000242844      3.56905      106.602 
0.000247170      8.44769      106.503 
0.000489700      8.07472      106.549 
0.000287584      7.13782      105.437 
0.000462088      2.97880      108.796 
0.000171762     0.297458      137.658 
0.000276939      3.33576      112.567 
0.000371771      7.00543      106.420 
0.000132626      3.72698      102.394 
0.000317431      1.10718      110.056 
0.000125313     0.227911      164.728 
0.000433189      1.25526      120.658 
0.000263295      8.14119      115.308 
0.000307972     0.608549     -9.43909 
0.000121417      6.11552      108.493 
1.71018e-05     0.234065      159.938 
0.000227421      3.63189      117.555 
1.66761e-05      7.42077      111.168 
0.000355383      7.85880      111.339 
0.000181882      9.06503      109.593 
0.000516829      7.43966      111.111 
0.000160977      6.50828      107.714 
0.000603536      9.01330      104.651 
0.000140901      8.86133      111.583 
1.56284e-05     0.209153      163.320 
0.000167887      9.18762      110.251 
0.000225744      6.03984      104.770 
7.05946e-05     0.284207      50.6787 
0.000207298      5.74601      112.724 
0.000242868      3.74604      102.330 
4.29551e-05      6.80534      108.329 
0.000171479      8.45347      106.635 
0.000322711      8.14139      113.602 
5.44586e-05      6.74559      115.274 
0.000218774     0.170734      20.5855 
0.000184390     0.269397      48.0484 
4.06031e-05     0.271765      162.816 
0.000115897      1.36300      112.428 
0.000223809      7.04874      113.582 
0.000332737      3.63260      118.259 
0.000352005      8.12356      115.367 
0.000191566      7.11829      105.481 
2.65555e-05      6.87533      107.958 
0.000287594     0.627803     -9.14708 
2.65657e-05      5.91828      103.282 
7.60279e-05      7.02487      106.373 
6.33385e-05     0.596781      103.599 
0.000192314     0.581230      153.468 
0.000244686      5.91383      103.098 
1.30113e-05      7.72230      106.089 
6.30696e-05      4.10659      101.799 
0.000225961      7.73619      105.903 
0.000159685      8.49734      111.978 
2.48626e-05     0.247514      165.964 
0.000115224      6.88792      107.754 
6.86655e-05      6.34207      113.410 
9.16852e-05      5.71980      112.622 
0.000108573     0.828371      109.748 
-0.000291810      6.63252      101.479 
3.58600e-05     0.243395     -99.4042 
0.000248312      8.43478      106.673 
0.000237327      4.11078      102.075 
2.38052e-05      8.16320      111.409 
4.60783e-05     0.592344      101.694 
9.73718e-05      8.09342      106.509 
0.000138360      6.22453      107.389 
-0.000102823      6.61340      101.513 
1.16671e-05      6.79253      108.545 
8.55688e-05      1.37086      113.211 
0.000179875      9.24158      109.337 
0.000125231     0.240977     -94.8229 
6.47451e-05      6.86685      111.710 
4.31903e-05      7.10422      105.682 
-0.000145439      2.56270      97.6224 
5.25535e-05      8.17062      111.541 
4.35224e-05      6.49052      103.908 
1.11733e-05      3.62305      117.977 
0.000103543      3.30929      112.378 
0.000103329      3.93192      113.698 
4.24316e-05      6.78028      108.754 
-0.000183346      6.98122      103.083 
-0.000183388      9.04377      112.083 
0.000111508      1.28304      120.975 
6.06551e-05      7.15665      111.478 
-0.000150856      3.21781      124.876 
2.08309e-05      6.93477      106.760 
3.11176e-05      8.84355      107.368 
7.05173e-05      1.06707      96.4603 
6.88985e-05      6.98672      106.465 
7.91784e-05      6.50946      103.866 
-7.91921e-05      9.33337      111.894 
1.99602e-05      3.56353      106.302 
2.98912e-05     0.724832      6.35984 
-5.90779e-05      3.49870      120.966 
4.90842e-05      8.83775      107.247 
1.98296e-05      6.01529      104.640 
3.90770e-05      3.01528      118.089 
1.98573e-05      6.76110      108.809 
-3.88605e-05      6.83909      99.7662 
2.91486e-05      4.09098      97.0168 
6.79213e-05      9.20663      110.207 
-3.89489e-05      7.08020      98.6127 
2.88635e-05      2.94664      113.614 
9.63930e-06      6.76766      108.971 
9.63367e-06      6.89390      107.908 
-0.000557101      3.33858     -46.4571 
-0.000860173      3.99614      41.3458 
-0.000996438      10.7969     -109.141 
0.000659787      7.71047      133.423 
-0.000642513      7.62079     -73.8492 
-0.000685632      9.34892     -70.6357 
-0.000530385      10.9047      45.6691 
-0.000467682      4.33855     -34.8637 
0.000562552      9.73125     -26.6164 
0.000550572      11.6509     -55.1380 
-0.000175356      3.32465     -46.7102 
-0.000236678      10.4258      168.605 
-0.000594088      6.81467     -29.3481 
-0.000233524      9.90569      1.96656 
6.08279e-05      1.56822     -84.1503 
-0.000433507      9.39140     -124.063 
-0.000534262      10.1835     -7.33239 
0.000269927      1.56635     -84.8602 
-0.000115444      13.4498     -130.418 
-0.000324047      8.16070      142.570 
0.000224676      7.95237     -115.791 
0.000383655      10.1838      100.293 
-0.000470222      9.95909      84.9295 
-0.000311815      5.62948     -61.3408 
-0.000521847      10.1093     -158.411 
0.000427141      8.83145     -146.924 
-5.72276e-05      3.35329     -46.6956 
0.000160949      10.0984      44.1992 
-0.000207563      5.78802     -51.0305 
0.000206233      6.16615     -39.4744 
-0.000357974      10.4059      168.583 
0.000310359      7.60529      32.9798 
0.000309439      10.4695     -28.2788 
0.000256290      9.74035      90.4723 
0.000159136      7.71298     -20.1750 
-0.000306023      12.7393     -138.627 
-0.000203281      13.4624     -130.481 
-0.000254755      9.59732     -124.385 
0.000198008      10.0843      44.1166 
-0.000204124      11.7421      133.483 
0.000205108      6.47235      58.5213 
-0.000302142      10.9963     -39.5397 
0.000105270      4.25657     -108.352 
-0.000253052      9.98436      129.716 
0.000422702      4.92351     -84.4024 
-0.000299826      7.31826      94.0747 
-0.000150180      9.88619      1.97044 
-0.000199548      12.1578      52.1477 
5.26945e-05      9.51222     -113.546 
0.000148802      9.59653     -86.6559 
0.000297425      7.96121     -115.923 
0.000150431      11.1616      30.4716 
-0.000102232      11.6540      130.058 
-0.000149515      7.37847      9.35886 
-0.000195766      12.4618     -47.9923 
-0.000148705      7.54301      11.1624 
-0.000147193      7.06584     -172.193 
-0.000101739      3.50423      162.388 
5.13196e-05      9.49752      30.7798 
0.000148759      7.54971      25.7501 
0.000196190      9.53821     -113.611 
0.000291240      10.1875      100.405 
-0.000145478      13.5256     -46.6770 
0.000193431      4.44206      80.4120 
-5.05193e-05      8.18492     -139.458 
9.77863e-05      6.62609     -76.3824 
0.000146686      11.4606      37.2706 
0.000191979      12.9189     -48.2634 
9.80853e-05      5.36777      156.965 
9.75353e-05      4.26950     -108.008 
0.000143930      9.51493      30.7173 
-9.73503e-05      4.18632      135.777 
-6.85412e-05      8.69236      127.240 
-0.000143551      3.52355      162.487 
4.88079e-05      6.46601     -76.2234 
-4.87800e-05      8.59885      135.562 
-9.48260e-05      10.9183      45.5959 
-4.85445e-05      11.4023      144.998 
9.49060e-05      7.73200     -20.1233 
-9.46943e-05      2.45788      145.272 
9.41716e-05      8.00078      89.1402 
-4.76623e-05      8.16953     -139.366 
9.39625e-05      9.98573     -147.265 
-4.72111e-05      11.3857      144.940 
-4.71439e-05      3.33943     -46.9486 
-4.70898e-05      10.7992      41.2447 
-4.68249e-05      8.61252      135.469 
4.67558e-05      4.20661     -109.725 
-4.67158e-05      8.17303      142.457 
4.66739e-05      6.46139     -76.3914 
-4.67064e-05      3.48503      80.7567 
-4.64144e-05      12.0163     -126.335 
-4.63562e-05      10.1742      30.3456 
-4.62107e-05      11.3741      145.023 
-4.62222e-05      11.6391      130.120 
-4.62650e-05      12.3895      138.927 
0.000705201      8.12271     -27.5759 
-0.000111378      9.23335      132.016 
-0.000430692      9.38022     -51.4927 
0.000152197      8.11383     -27.7642 
-0.000199903      8.64992      127.957 
-0.000104776      12.3582     -129.614 
-0.000356443      3.65430     -119.513 
0.000201033      8.36018     -68.5290 
-0.000650130      9.24642      132.105 
-0.000242158      7.32587      9.74212 
-0.000334292      8.45633     -125.082 
-5.22607e-05      12.4147     -129.642 
0.000406251      7.44735      40.5337 
0.000229925      3.74639      3.36444 
-0.000275004      9.97230      48.2515 
-9.88845e-05      9.32600     -92.0888 
-0.000356619      9.93713      85.0355 
-0.000659798      12.2048      131.081 
-4.91498e-05      12.4427     -129.651 
-0.000213284      7.56205      96.0721 
-0.000179938      12.3301     -129.605 
-4.71150e-05      7.38424      94.6631 
0.000207478      8.60474      91.8640 
-0.000172026      8.71210      126.316 
-0.000205019      10.2164     -156.095 
-8.02884e-05      9.30651     -92.0932 
0.000157788      10.2809     -65.0286 
-4.55003e-05      12.4557     -129.723 
0.000332752      8.33392     -68.6077 
-0.000163306      9.05277     -109.757 
-0.000279184      12.9061     -128.646 
0.000125558      8.85759      166.153 
-0.000353377      7.36317      94.5183 
8.58914e-05      7.89762      63.3668 
-0.000304642      9.25011     -40.4400 
0.000201610      6.70621     -74.4289 
8.45009e-05      4.34369     -9.80730 
-0.000284773      11.9161      126.331 
-0.000190453      9.30727     -92.2179 
0.000155442      7.06399     -137.639 
0.000349500      4.84817     -117.517 
-0.000273862      12.3742      138.865 
4.27775e-05      5.77528     -94.1726 
-0.000157481      8.63747      127.851 
-0.000267715      12.4836     -129.737 
-4.24071e-05      5.34140      166.795 
-8.25812e-05      3.11843      83.7420 
0.000223373      10.0915      96.8286 
-0.000146745      7.34510      9.71637 
-0.000253949      12.1296     -132.661 
-8.08899e-05      1.98941     -74.8472 
-8.02500e-05      9.82949      85.5647 
-0.000358513      8.25086     -16.7671 
-4.14967e-05      8.79100      161.564 
0.000141235      3.90304     -177.653 
-0.000185700      11.9194     -47.5846 
-0.000269703      5.38901     -168.441 
-4.10433e-05      5.40364      165.861 
7.89632e-05      10.3832     -170.466 
0.000208212      5.65854     -80.4353 
0.000112455      10.6068     -161.188 
-0.000178907      8.64508      131.249 
0.000298778      9.80468      157.828 
-0.000144011      9.52846     -50.1950 
-7.59583e-05      5.42329      165.914 
0.000148451      7.40202      148.929 
0.000175990      1.25286      155.477 
-0.000346066      10.2715      115.116 
0.000112829      3.79503      34.6987 
-0.000231061      10.1583     -162.348 
0.000105876      5.79405     -93.9582 
-0.000174378      5.36040      166.843 
7.64492e-05      8.47811      139.016 
3.90980e-05      8.90808      168.213 
0.000341826      7.94568     -48.1620 
-0.000143884      3.11629      84.1123 
-7.33725e-05      6.09415     -48.7291 
-0.000141205      12.3145     -129.665 
-7.45797e-05      9.95882      48.3385 
-0.000208124      12.1767      50.5312 
0.000104386      4.36291     -9.76365 
0.000120200      7.95921     -48.0533 
-3.77707e-05      8.44470     -124.969 
7.28903e-05      10.4339     -33.5072 
0.000102068      11.3341     -32.6821 
-6.92672e-05      9.04059     -109.921 
-3.74236e-05      7.12371      10.6779 
-3.71614e-05      8.34417     -8.13229 
0.000101193      7.88019      63.3032 
0.000112621      10.2992     -65.0762 
-0.000337679      6.89462     -29.1679 
-3.68742e-05      8.77249      161.523 
-0.000388644      9.36327     -124.030 
-0.000332817      9.20713      135.264 
3.67703e-05      7.05495     -12.7754 
-3.67055e-05      8.70842      126.500 
-0.000125859      11.9344     -47.6502 
0.000222280      7.46219      40.4363 
6.83093e-05      6.77453     -68.8869 
0.000227859      6.44059     -146.654 
-9.79957e-05      8.69134     -50.2261 
0.000970111      11.2704      117.246 
3.64341e-05      11.1177     -58.3107 
0.000200088      10.4919      104.010 
0.000167080      13.0514     -41.3334 
6.95547e-05      6.84280     -117.318 
-0.000487323      13.2168     -39.3507 
-0.000302525      10.3530     -45.7811 
-0.000155407      8.24771      71.0408 
7.00067e-05      10.1006      9.57499 
-3.58395e-05      5.54873      24.7178 
-3.57900e-05      10.1390     -162.313 
9.91630e-05      11.3801     -57.7079 
6.71394e-05      11.1680     -149.073 
0.000304717      11.1188     -60.1146 
3.54003e-05      8.92718      168.239 
0.000156093      10.3799     -170.576 
-0.000218945      9.84969      85.5738 
-9.50535e-05      9.36761     -51.5896 
0.000174892      8.37485      35.4744 
-3.47887e-05      8.66024      126.736 
0.000101306      10.1639     -104.940 
-6.67260e-05      9.12450     -91.7578 
0.000127775      8.46484      139.119 
0.000198848      10.2774      164.422 
-0.000124933      9.97397      48.4159 
0.000123735      7.48689      60.5600 
8.84262e-05      4.92545     -84.1765 
-0.000505773      10.2448      115.065 
-0.000278554      8.65617      126.924 
0.000114744      11.1070     -58.3996 
6.53751e-05      9.70940      156.444 
-0.000295530      12.9093     -128.519 
-9.61546e-05      10.7967      119.034 
0.000212382      5.56964      75.0164 
0.000150212      8.93134      168.111 
-3.37208e-05      9.15653     -143.706 
-9.50125e-05      2.30421      93.4914 
3.33566e-05      6.70080     -74.5958 
6.24674e-05      7.07398     -12.7404 
-0.000380283      9.03371     -109.800 
-0.000333389      12.4324      50.5473 
-6.27181e-05      6.89145     -42.9968 
-0.000141658      11.2579     -47.9529 
3.27798e-05      6.77796     -59.5029 
0.000113713      9.88234     -58.6587 
-0.000118087      11.8488     -127.662 
-0.000168541      10.2122     -36.4000 
-3.26272e-05      5.42825      165.706 
-3.25642e-05      5.55692      24.9005 
-9.27397e-05      9.86531      15.6431 
8.73978e-05      10.4170     -33.5687 
-9.12647e-05      3.64295      161.767 
-9.36291e-05      5.33681      167.007 
3.23008e-05      4.34486     -87.3570 
3.21421e-05      7.41938      149.009 
-3.20695e-05      7.55994      95.9194 
0.000258892      7.20415     -7.65577 
-0.000146122      10.9671      123.168 
-0.000305888      3.09493      84.4345 
-3.19634e-05      10.2275     -19.1807 
0.000149550      10.3211      164.373 
-0.000108938      9.04821     -145.539 
0.000143276      6.86250     -6.35956 
9.16280e-05      13.4790      45.9022 
-0.000271681      12.8901     -133.177 
0.000233432      10.1587     -104.830 
0.000210964      6.85177     -117.463 
3.12340e-05      10.4870      103.903 
-0.000412672      11.8954     -46.0198 
0.000167087      4.34580     -87.1000 
3.11043e-05      9.59129     -113.731 
0.000157844      6.76808     -59.6453 
0.000327993      10.0978      124.919 
0.000155485      10.1063     -123.783 
8.55407e-05      13.9445     -134.651 
-0.000143206      9.28780     -92.3430 
-0.000112155      10.7228      120.488 
-0.000115655      9.82620      1.98247 
-3.06671e-05      10.2339     -19.2839 
-0.000191436      10.8800     -112.934 
-0.000217394      12.6893     -46.4688 
5.97344e-05      10.1140      96.9289 
