! Center RA: 12 21 31.69052,  Dec: +28 13 58.50019 (2000.0)
! Established model.
! Flux (Jy) Radius (mas)  Theta (deg)  Major FWHM (mas)  Axial ratio   Phi (deg) T \
! Freq (Hz)     SpecIndex
  0.124050      0.00000      0.00000 
 0.0164377    0.0286526     -45.0000 
 0.0554764    0.0202604     -90.0000 
0.00680404    0.0828082      75.8378 
 0.0234495     0.101837      78.5245 
0.00632165    0.0286526     -135.000 
 0.0298038    0.0397705     -90.0000 
 0.0270287     0.121759      80.4216 
 0.0130002    0.0446338     -116.996 
0.00250478     0.120062      90.0000 
0.00209232     0.140322      90.0000 
0.00285048     0.161111      97.2243 
0.00173198     0.204262      101.227 
0.00138378     0.227911      105.272 
0.00399238     0.247514      104.036 
0.00336399     0.271765      107.184 
0.00540681    0.0896014      63.6495 
0.00405820    0.0562440     -135.000 
0.00240920     0.297155      109.625 
0.00409120    0.0633577     -108.650 
0.00124626    0.0848966      45.0000 
0.00202482     0.323277      111.801 
0.00180955     0.100252      53.2159 
0.000556646     0.349107      113.700 
0.000269110     0.367749      112.431 
0.000173837     0.430710      111.783 
0.000501125     0.457182      113.199 
0.00124801     0.304558      113.217 
0.00282766    0.0802914     -90.0000 
0.000918644     0.475177      112.272 
0.00170992     0.100252      36.7841 
0.00172221     0.501727      113.536 
6.48911e-05     0.278155      111.026 
0.000808432     0.286050      114.817 
0.00102742      1.06314      109.803 
0.000525448     0.520365      112.645 
0.00205988      1.05010      107.723 
0.000260452     0.126477      108.327 
0.000669386     0.101837      101.476 
6.07188e-05     0.402700      116.565 
0.000175622     0.384685      117.915 
0.000128472     0.366905      119.396 
0.000272996    0.0802914      90.0000 
0.000217969     0.528183      114.599 
0.000442413     0.797167      107.531 
0.000264112     0.340058      118.035 
0.000106278    0.0633577      71.3505 
0.000586221    0.0600310     -90.0000 
0.00152057     0.545983      113.747 
0.000651300     0.322315      119.728 
0.000289830     0.803259      108.858 
0.000375434    0.0720098      56.4755 
0.000452997      1.05645      108.770 
4.46488e-05     0.295127      118.390 
0.00104018     0.828371      109.748 
8.59940e-05    0.0720098      33.5245 
4.27383e-05     0.250509      118.638 
0.000123581    0.0896014      26.3505 
0.000626403     0.278118      120.301 
0.000504097    0.0828082     -75.8378 
0.000301454     0.101837      11.4755 
7.79571e-05      1.06870      107.404 
3.89675e-05      1.06991      110.787 
3.80537e-05      1.07726      111.794 
3.77165e-05      1.06303      106.401 
7.41751e-05      1.10296      112.395 
3.65274e-05      1.05749      105.348 
0.000104507     0.350038      120.964 
0.000175718      1.11054      113.326 
3.54507e-05      1.07704      105.063 
0.000387012     0.121759      9.57842 
0.000227367      1.07195      104.017 
0.000194130      1.11872      114.279 
6.20670e-05     0.377263      122.078 
0.000288745      1.12720      115.217 
0.000484694      1.08715      102.760 
2.95749e-05     0.404832      122.895 
0.000657307     0.233573      120.932 
0.000367605     0.159832      0.00000 
8.26101e-05     0.432889      123.690 
0.000363564     0.116465     -58.9729 
8.09052e-05      1.08147      86.8180 
0.000202343      1.16280      116.565 
0.000177164      1.47658      114.820 
6.75674e-05      1.08279      85.7475 
2.59906e-05     0.471709      126.396 
0.000507446      1.13565      116.108 
0.000101168     0.481892     -4.73400 
0.000379720      1.06707      83.5397 
9.84163e-05     0.566349      132.100 
2.51660e-05     0.100252     -143.216 
0.000120392     0.861421      111.783 
0.000138049     0.126477     -161.673 
0.00113716     0.523472     -6.58508 
0.000621953      1.48520      115.529 
0.000363669     0.180093      0.00000 
4.60561e-05     0.580127      133.585 
4.55079e-05      1.36511      100.964 
0.000168550     0.869143      113.023 
0.000126653     0.621868      135.000 
0.000672157      1.36153      100.158 
0.000513947     0.538423      111.846 
0.00111824      2.64477      112.680 
0.000100969     0.161111     -172.776 
0.000109144     0.727252      97.8876 
0.000205391     0.636355      136.290 
0.000227190     0.903799      114.842 
0.000534027      1.06954      82.4611 
1.87693e-05     0.200353      180.000 
0.000151646     0.220795      174.735 
0.000122050      1.11058      103.520 
0.000493647     0.156126     -50.2649 
0.000157756      1.17200      117.451 
0.000352102      3.51374      128.767 
0.000103863     0.724832      96.3598 
0.000198468     0.205897      118.994 
0.000116331     0.576231     -159.654 
0.000251078      2.61857      112.457 
0.000117827     0.243395      170.596 
0.000158987     0.651151      137.522 
8.19687e-05     0.583302     -157.856 
1.42355e-05      1.67257      116.255 
6.66221e-05      1.69973      116.565 
5.33935e-05      1.49404      116.230 
0.000643888      3.54175      128.808 
2.58870e-05     0.141777      8.21587 
0.000187331     0.912496      115.996 
0.000483073      2.38401      127.158 
0.000247285     0.701240      93.2513 
1.29107e-05     0.594563     -160.307 
0.000478428      1.46694      115.870 
3.68968e-05     0.599425     -154.333 
0.000230870     0.543603     -6.34019 
6.87746e-05     0.588045     -162.166 
0.000122993      1.72593      116.855 
5.54388e-05      1.09162      103.759 
0.000174810     0.608475     -152.613 
9.92448e-05     0.880437     -178.681 
6.11432e-05     0.557279      111.071 
4.15842e-05     0.694267      138.505 
8.00119e-05     0.266484      166.981 
0.000147038     0.730308      170.538 
-0.000880497     0.601418     -21.4430 
0.000153857     0.899942     -178.710 
0.000217068      1.35811      99.3166 
0.000148273      1.75318      117.146 
9.37813e-06      1.06740      103.001 
0.000180524      1.14471      117.019 
0.000192937     0.169793     -45.0000 
0.000142747      2.35563      127.063 
6.74054e-05     0.582160     -164.065 
8.98384e-06     0.885454      115.392 
0.000150745      1.05916      79.0961 
0.000122490     0.894329      116.565 
0.000126017     0.618057     -150.945 
9.65813e-05     0.291183      163.994 
3.61398e-05     0.709570      139.589 
0.000205328     0.899714      180.000 
1.52991e-05      1.04767      103.250 
0.000123031      3.55448      129.062 
2.21767e-05      1.10618      102.537 
5.67963e-05      1.78954      117.983 
7.37971e-06     0.749560      170.783 
7.64001e-05     0.753070      169.261 
0.000337142     0.565518     -8.16236 
3.85507e-05     0.531217      109.817 
-0.000314910      2.42419      123.562 
0.000148000     0.184676     -40.5508 
8.60860e-05     0.635182     -151.800 
6.18716e-05      1.02868      103.499 
0.000174732      1.81630      118.259 
6.76776e-05     0.903572      117.714 
-0.000248835      1.30136      133.738 
-0.000378444     0.323277     -68.1986 
0.000193954     0.201375     -5.77433 
1.85412e-05      1.10025      88.9449 
-0.000182056      2.61152      116.374 
-0.000385129     0.411965      67.1714 
5.23445e-05     0.188432      121.981 
7.46457e-05      1.33505      98.6311 
4.95522e-05     0.563425     -163.520 
2.27613e-05      1.05231      75.7160 
1.17971e-05      1.28304      120.975 
5.14710e-05     0.512905      110.556 
1.62672e-05      1.12597      102.313 
9.87605e-05     0.700404      91.6576 
2.68402e-05      1.12051      91.0360 
2.26347e-05     0.930615      118.197 
2.24929e-05      1.31047      121.251 
6.75207e-05     0.961787     -159.303 
7.78036e-05     0.940357      119.286 
5.03583e-05     0.772985      169.541 
7.55590e-05     0.653108     -152.640 
0.000115299     0.212689     -41.2810 
7.16394e-05     0.506146      108.408 
6.04260e-05     0.161670      119.778 
5.56810e-05      1.32109      122.002 
5.35624e-06      1.11816      116.548 
1.50081e-05     0.724535      140.590 
9.96352e-06     0.271765      162.816 
3.01323e-05      2.31618      126.569 
5.10093e-06      1.05749      74.6522 
1.90729e-05      1.12103      92.0331 
4.91464e-06      1.05010      72.2772 
-7.10376e-05      1.75321      122.432 
3.77334e-05     0.950432      120.351 
4.80765e-06     0.297155      160.375 
2.35348e-05      2.19247      125.725 
-1.86693e-05      2.62969      116.178 
1.40380e-05     0.480914      106.965 
1.39777e-05      1.05645      71.2304 
-1.39622e-05     0.971135      57.6239 
-4.69691e-06     0.902718      77.1767 
4.69913e-06      1.00899      103.768 
-1.39934e-05     0.720372      0.00000 
-1.85774e-05     0.917561      78.6809 
9.32119e-06      1.34839      122.293 
-9.26403e-06      1.07201      143.339 
-0.000888764      12.8323      37.2076 
0.000810082      6.48430      162.962 
-0.000154324      6.88794      134.179 
0.000698805      10.8359      19.4061 
0.000533275      11.3805     -59.2429 
-0.000574010      6.85983      134.171 
0.000447794      6.50601      102.970 
0.000385950      9.10112     -140.081 
-0.000537674      3.88084      13.1092 
0.000459368      4.18142      121.108 
0.000359238      6.50149      102.796 
-0.000395703      4.48742      165.285 
-0.000106010      6.87397      134.292 
-0.000425885      9.40825      133.365 
-0.000567735      8.52713      138.235 
-0.000381551      8.57844      82.2278 
0.000399390      10.6364     -127.129 
-0.000232568      5.53714      64.0843 
0.000223375      9.60736     -66.0516 
-0.000606406      10.4610      168.195 
-0.000273756      10.8827     -118.544 
-0.000227767      6.81162      160.982 
0.000357058      7.74730      171.388 
0.000185310      10.5669      69.8497 
0.000262725      9.57274     -66.2199 
0.000344488      9.11667     -140.162 
-0.000181379      8.93818     -58.7294 
-0.000220459      10.3173      60.5022 
0.000219839      10.1481      65.3053 
-0.000267299      11.0806     -61.3053 
-4.67935e-05      9.10152     -17.9151 
-0.000172007      7.05726     -63.9444 
-0.000476480      5.49748      141.796 
0.000358756      10.8315     -116.187 
0.000130886      6.64982     -136.706 
-0.000297616      13.8775     -133.657 
-0.000208551      12.3572      131.324 
0.000209956      8.54800      34.3220 
-0.000125959      9.10761     -51.4191 
0.000129343      6.27965      4.56464 
-0.000291546      12.6874      136.086 
0.000249772      10.9446      38.5475 
0.000167079      8.56169     -22.6724 
-0.000125287      9.12008     -17.8774 
0.000125196      3.67704      157.617 
0.000165381      10.4284     -143.656 
0.000164738      6.36613     -11.4146 
0.000124223      1.40914      145.413 
8.31635e-05      10.6242     -127.042 
8.20949e-05      5.93391      121.493 
-0.000162597      3.95161     -21.3711 
0.000162142      9.23628      165.451 
0.000224193      10.5783      69.9891 
0.000162408      8.51747      28.0122 
-8.05937e-05      10.8921     -118.634 
-0.000161144      9.80172     -112.430 
-8.31169e-05      5.66186     -25.7500 
0.000160889      13.6328      44.8818 
-0.000121790      12.8205      37.1382 
-8.24161e-05      9.58940      2.51156 
0.000160455      11.6611      41.4547 
0.000120361      4.28198      98.0591 
-0.000119600      7.04982     -73.5210 
0.000120208      9.91924      86.4174 
-8.02911e-05      6.68981     -123.781 
0.000118855      11.4599     -125.410 
-0.000157527      12.3850      125.205 
-4.08193e-05      1.73671     -144.834 
-0.000118488      10.3353     -11.1566 
-0.000118997      11.1077     -61.2672 
0.000116771      12.2305      42.4837 
-4.00435e-05      5.55916     -32.6604 
-0.000116685      11.1441     -134.564 
7.76414e-05      7.42696      23.3194 
3.96618e-05      6.29984      4.54998 
-7.72851e-05      7.23129      86.8294 
7.77791e-05      7.77039      171.263 
3.90046e-05      12.4473     -132.068 
-3.90450e-05      8.92807     -58.8364 
-3.87994e-05      6.54401     -103.609 
3.86864e-05      2.71875     -83.2477 
0.000151581      10.8226     -116.091 
-3.84932e-05      10.6285     -117.819 
5.76613e-05      9.43768     -168.260 
-3.83038e-05      9.10595     -156.025 
3.82273e-05      9.11059      110.027 
3.79768e-05      5.99552     -65.1477 
3.78298e-05      6.63509     -136.586 
-3.77323e-05      12.5517     -130.670 
-0.000676934      6.76280      133.318 
-0.000263761      10.0452      29.0637 
0.000540190      9.03218      17.7922 
0.000497340      10.0266      116.414 
-0.000105352      10.0997      131.708 
-0.000321781      12.6606      53.6728 
0.000239995      3.01204     -104.220 
-0.000262894      10.2826     -167.534 
-0.000444435      10.2269      43.8108 
-0.000378745      10.1132      131.794 
-0.000492892      9.88955     -39.4209 
-0.000362344      10.2297     -11.0462 
9.52554e-05      6.56222     -135.496 
-4.82943e-05      11.1135     -125.034 
0.000426566      10.2681      23.1700 
0.000138667      9.19440      110.365 
-9.05644e-05      5.14331     -160.225 
-0.000135243      10.0275      29.1200 
-0.000134529      7.46933     -16.0079 
0.000217553      13.6475      44.5857 
-0.000821010      11.1190     -124.891 
-8.85394e-05      3.50494      70.3198 
0.000287661      3.13032     -153.429 
0.000132482      6.59160     -135.982 
0.000166247      1.30462     -125.637 
-4.54501e-05      12.5728      135.580 
-0.000477798      7.14658      20.8194 
-0.000232416      5.54352      147.971 
-0.000479862      9.76703      42.5091 
0.000129971      5.38919     -43.9450 
-0.000122252      4.72240     -100.742 
-0.000227335      11.3236     -140.518 
-0.000125205      5.45370      141.705 
0.000315970      2.48798     -114.710 
-0.000296424      10.9642     -114.460 
-0.000259213      9.32315      133.523 
0.000119940      9.74076      113.091 
-0.000162497      10.2098     -11.0680 
-0.000195532      9.78629     -21.5860 
8.32580e-05      7.39291      106.178 
-0.000201326      9.31079      139.878 
0.000465328      8.83292     -53.9333 
0.000224532      9.20147      110.483 
0.000184025      10.5358     -103.615 
-0.000507027      10.7227     -131.749 
-0.000195123      7.48881     -15.9651 
0.000301352      12.8334      142.345 
-0.000484357      10.6621     -145.622 
-0.000222644      6.41265     -146.063 
-0.000151973      11.7161     -131.609 
-0.000152829      10.0528      28.9125 
4.10951e-05      8.57019      33.5801 
4.08848e-05      5.42100      49.7893 
7.86246e-05      7.87440      108.663 
-0.000114762      12.5736      135.708 
0.000189166      4.60436      17.9595 
-4.01974e-05      11.8514     -42.1951 
0.000321319      5.37463     -44.0949 
7.67196e-05      6.60564     -136.100 
-0.000241206      4.73495     -100.215 
-3.97273e-05      5.16899     -160.097 
-0.000114630      13.6376     -46.4269 
0.000333283      3.82106      1.20404 
0.000174401      7.39858      106.329 
0.000237795      8.55900      33.4672 
0.000292107      13.6477      44.4654 
-0.000135243      10.6862     -124.940 
-3.87831e-05      8.30006      4.00738 
0.000264033      6.65760      110.396 
0.000104990      5.77265      49.3543 
-0.000109187      12.6722      53.6017 
3.83798e-05      8.28629      107.562 
-3.84030e-05      7.20157     -82.4981 
3.82832e-05      5.45723     -113.089 
-3.81905e-05      3.51155      70.0200 
0.000142188      5.19687     -69.2648 
-0.000107853      11.8795     -42.2043 
0.000203876      7.80681      10.3324 
-0.000232154      13.3526      48.8850 
-0.000165887      9.35446     -80.2740 
0.000165162      8.30561      107.520 
-0.000193933      8.65944     -73.9114 
-0.000102205      7.27214      67.5234 
-3.62155e-05      6.72329      14.1215 
-3.61080e-05      2.76585      7.89048 
7.07761e-05      9.48819     -13.6549 
-0.000160577      8.38071     -90.5489 
-0.000190183      9.86382     -66.7116 
6.53401e-05      11.2189      122.332 
-3.55770e-05      10.7114     -131.518 
0.000123280      5.46521     -113.284 
-6.89681e-05      3.52990      70.1282 
3.50569e-05      3.81113      33.4429 
0.000387841      9.99113      116.255 
0.000121333      10.5783     -28.4557 
-0.000600948      13.6236     -46.4886 
-6.66945e-05      10.2059     -10.9563 
-0.000521626      10.8515     -141.060 
3.46273e-05      9.71418      113.028 
-6.67157e-05      6.77672      133.443 
-9.44977e-05      6.92063      19.5882 
3.45285e-05      3.14845     -153.594 
-0.000257566      7.50829     -15.9226 
3.44271e-05      6.62026     -136.222 
0.000339984      9.04461      17.6322 
6.65283e-05      7.86818      108.528 
0.000290953      4.62364      17.8821 
9.28986e-05      8.29999      26.6253 
-3.42491e-05      10.0249     -6.52869 
0.000274119      10.1681     -52.9939 
3.41763e-05      8.80462     -53.9622 
-6.60574e-05      1.22366     -101.317 
-9.66996e-05      8.63267      82.5433 
-6.48742e-05      11.1302     -134.634 
-0.000208966      11.4846     -116.923 
-3.39203e-05      11.0049      43.8231 
6.63998e-05      10.5481     -158.884 
-0.000154166      10.2821     -156.376 
-0.000178526      11.6071      55.1048 
-0.000119907      7.92445     -38.7496 
-6.54013e-05      10.8241      53.4908 
-0.000362603      9.17054     -156.342 
-3.34616e-05      7.17886     -82.6373 
-3.34352e-05      11.7770     -142.312 
9.57416e-05      10.7876      154.053 
0.000125656      9.44476     -13.5924 
-0.000120557      9.61003      84.1470 
0.000263028      9.21011      19.5392 
-3.31689e-05      12.5876      135.770 
-3.29899e-05      13.6657     -46.4217 
3.29379e-05      8.40827      53.5136 
-3.28990e-05      4.57718      66.5745 
-9.33881e-05      10.0285     -12.7874 
-0.000193838      11.5695     -44.1591 
6.20796e-05      9.70627      112.918 
0.000459000      11.4665     -125.631 
-3.25950e-05      12.0348     -44.6640 
-3.25829e-05      8.70553     -120.511 
-0.000117397      5.99596      127.137 
-0.000250662      3.53684      69.8196 
-6.24052e-05      9.76746     -21.6298 
-0.000152647      10.0473     -6.63034 
-0.000124911      10.8562     -58.9459 
-6.22690e-05      6.70844      14.3254 
9.43943e-05      12.4609     -132.137 
-0.000405737      9.54388     -42.1128 
-6.31201e-05      9.20217      84.5112 
9.29694e-05      6.63490     -136.343 
-0.000168338      7.30593     -177.645 
-0.000120377      6.63412     -112.702 
6.17055e-05      8.72982      153.906 
-0.000147007      10.1418      131.803 
-0.000241556      12.1063     -128.762 
6.10933e-05      10.0257      19.3368 
3.16441e-05      3.81634      33.0276 
-6.12776e-05      5.51624      148.042 
-3.15145e-05      9.32771     -80.4983 
5.95463e-05      10.4886      60.4051 
-0.000249036      10.8837      40.3048 
-6.04263e-05      11.7295     -131.683 
0.000454967      12.8612      142.326 
-0.000245603      10.9898      44.0400 
5.98039e-05      8.46435     -128.767 
-0.000125271      6.85065      137.370 
-0.000114035      11.7248      126.049 
-6.02202e-05      12.0941     -128.690 
-3.07978e-05      9.72496      25.1948 
-3.07285e-05      6.39585     -145.961 
0.000114496      12.0524      122.188 
-3.04809e-05      8.31889      3.85842 
0.000191023      10.9177     -60.4749 
-0.000206235      7.00941     -22.8345 
-0.000184355      9.35074      133.527 
8.65752e-05      10.5299     -158.846 
-5.93019e-05      8.94179      84.4813 
-5.95042e-05      13.9606     -133.898 
-5.86702e-05      8.71583     -120.625 
2.98739e-05      3.80000      33.1880 
2.98095e-05      13.4678      46.4448 
-0.000357366      10.8663     -58.8578 
0.000174151      7.36515      112.178 
5.67162e-05      9.81292      152.704 
-0.000128012      10.2129      43.7288 
-0.000133642      9.87312      174.071 
0.000462341      8.28988     -175.155 
0.000279248      9.42952     -168.501 
-5.44369e-05      1.22764     -102.210 
0.000183635      12.4745     -132.206 
-2.93290e-05      10.1363      39.1533 
5.59011e-05      4.64221      17.8082 
2.92160e-05      5.83721     -150.885 
-2.90181e-05      12.0072     -44.6633 
-7.95973e-05      5.54603      63.8961 
2.89237e-05      3.43692     -106.215 
-0.000135231      4.81957     -60.1378 
8.15575e-05      8.42034      53.4028 
-4.97375e-05      11.5650     -60.2445 
