! Center RA: 12 21 31.69052,  Dec: +28 13 58.50019 (2000.0)
! Established model.
! Flux (Jy) Radius (mas)  Theta (deg)  Major FWHM (mas)  Axial ratio   Phi (deg) T \
! Freq (Hz)     SpecIndex
 0.0605002      1.52028      90.0000 
 0.0380875      1.50016      89.2262 
0.00894211      1.52042      89.2365 
0.00305209      1.78036      88.7200 
0.00228787      1.58032      90.0000 
0.00344443      1.59995      89.2744 
0.00296773      1.50055      88.4813 
0.00308040      1.78003      89.3478 
0.00417113      1.62021      89.2835 
0.00119710      1.80029      89.3552 
0.00438323      1.48030      88.4605 
0.000606214      1.64047      89.2924 
0.00170976      1.68059      88.6440 
0.000377763      1.74118      88.0242 
0.000185631      1.80018      90.0000 
0.000361439      1.76524      85.4406 
0.00121521      1.81969      90.0000 
0.00142962      1.70009      88.6595 
0.00108017      1.59983      90.0000 
0.000341801      1.76690      84.8100 
0.000632359      1.78901      84.2225 
0.000162623      1.81980      90.6379 
0.000317275      1.83995      90.0000 
0.00171523      1.84006      90.6309 
0.000148831      1.76885      84.1564 
0.000818237      1.79116      83.5776 
0.000335063      1.48098      87.6769 
0.00154825      1.69975      89.3170 
0.00290986      1.46149      87.6459 
0.00132303      1.86032      90.6240 
0.000255688      1.77103      83.5043 
0.000815072      1.76011      91.2947 
0.000781022      1.79345      82.9582 
0.000729854      1.87972      90.0000 
0.000602386      1.68024      89.3091 
0.000606762      1.77334      82.8780 
0.00113947      1.76068      91.9539 
0.000916392      1.87983      90.6175 
0.000640479      1.44054      88.4180 
0.000358569      1.66033      88.6274 
0.000495932      1.79604      82.3168 
0.000499573      1.52675      84.7265 
0.000729264      1.58044      90.7345 
0.000495094      1.77597      82.2294 
0.00132556      1.68119      87.9537 
0.00114322      1.70069      87.9771 
0.00107275      1.78036      91.2800 
0.000925439      1.50122      87.7082 
0.000304030      1.52080      88.5015 
0.000580590      1.81356      83.0367 
0.000617744      1.68203      87.2640 
0.00149931      1.81612      82.4022 
0.00131490      1.80118      91.9099 
0.00337838      2.06459      86.1028 
0.000553936      1.58082      91.4416 
0.000318635      1.50217      86.9361 
0.000529868      2.04383      86.6323 
0.000284351      1.68308      86.6005 
0.000137929      1.46079      88.4399 
7.49527e-05      1.52502      85.4845 
0.000307503      1.44014      89.1939 
0.00166246      1.58145      92.1754 
0.000208688      1.52866      83.9984 
0.000848470      1.92035      89.3955 
6.74450e-05      1.55029      83.3290 
0.000730190      1.41973      90.0000 
0.000131829      1.53091      83.2442 
0.000311975      1.55277      82.5865 
0.000819089      1.80197      92.5538 
0.000355422      1.66285      86.5591 
0.000119573      1.53343      82.4924 
0.000437346      1.55541      81.8738 
0.00132685      1.58235      92.9085 
0.000381383      1.53610      81.7709 
0.00137510      2.18135      92.1094 
0.00117741      1.40022      90.0000 
0.00159185      1.81881      81.7930 
0.00108746      1.92024      90.0000 
0.000636787      1.55840      81.1364 
4.74830e-05      2.18070      91.5775 
0.000416106      1.60095      92.1489 
0.00157851      2.54202      87.7499 
0.000426831      2.99669      101.161 
7.89771e-05      1.93986      89.4016 
0.000600467      1.56153      80.4290 
0.000703558      1.80294      93.1732 
0.00179138      2.74504      71.2976 
0.000107904      1.64231      87.1977 
0.000275871      3.30675      97.3008 
0.00110727      2.76424      71.4323 
0.000250418      1.41988      89.1824 
0.000314040      1.78271      93.2093 
0.00108846      2.95472      77.0861 
6.46921e-05      1.64144      87.9041 
0.000146953      1.66180      87.2306 
0.000887073      2.59781      80.2547 
0.000110982      3.28666      97.3457 
0.00117935      3.42868      94.0159 
9.09874e-05      1.40037      89.1710 
0.00177907      3.92769      72.2124 
0.000390886      1.95705      97.6237 
0.000216401      1.56503      79.6976 
0.000429460      1.92035      90.6045 
0.000654511      2.66300      104.357 
0.000662156      1.34034      89.1339 
0.000495125      2.82867      77.3426 
0.000712683      4.58819      73.5449 
0.000292453      1.98941      74.8472 
4.98380e-05      1.95984      98.2108 
0.000673185      2.80039      78.0457 
0.00157295      4.10601      64.3107 
0.000940349      3.15447      77.5540 
0.000319852      1.60703      106.633 
6.23066e-05      2.16375      76.0939 
8.64040e-05      2.00825      74.9927 
0.000550164      3.01824      80.8445 
0.000957981      4.58270      73.7788 
0.000165749      3.60467      96.6945 
0.000491888      2.60937      85.1666 
0.000277418      2.00309      75.5525 
0.000145753      1.97989      98.1270 
0.000196122      3.02984      94.5456 
0.000893670      1.32009      89.1206 
0.000662369      4.10517      70.9457 
0.000556490      3.62250      96.3389 
0.000464634      2.65805      103.934 
0.000268390      1.59433      107.531 
0.000510503      2.46111      97.4630 
0.000134400      1.79875      81.7009 
5.03773e-05      1.92065      91.1865 
0.000397480      1.56121      92.2037 
0.000202497      2.59032      76.5998 
0.000133354      1.43990      99.5998 
0.000476283      3.91467      71.8394 
0.000976128      1.60032      108.197 
0.000201519      2.08620      85.6060 
0.000143546      1.99995      98.0450 
0.000140003      3.03145      94.9132 
0.000121709      1.82242      93.1393 
0.000203564      3.60237      96.3745 
1.49438e-05      1.80418      93.8157 
0.000525742      3.93393      71.9314 
7.83314e-05      2.52051      88.6353 
4.20143e-05      4.09861      71.2134 
0.000594620      3.91607      80.2922 
-0.000846618      3.24411      92.8240 
0.000701884      4.11708      71.3009 
0.000297428      4.59585      74.0893 
0.000326007      2.59491      76.1808 
0.000357438      3.17793      77.2731 
0.000488515      2.82446      77.7288 
0.000236233      3.01308      95.3301 
0.000162426      2.01927      97.9675 
6.03940e-05      3.62032      96.0202 
1.25112e-05      2.59458      80.6793 
-0.000848505      3.58149      91.5968 
4.66411e-05      2.65324      103.510 
6.57249e-05      1.44328      100.363 
0.000291589      3.60017      96.0540 
0.000188964      3.30424      96.9523 
-0.000293465      2.52494      106.577 
0.000115042      2.62520      102.765 
1.15445e-05      2.95026      77.4696 
0.000244844      2.58918      85.1288 
0.000106966      4.63270      75.2390 
0.000288328      2.97004      77.5544 
0.000339935      2.48315      97.8681 
3.18389e-05      1.17106      97.8445 
0.000210468      4.08776      64.1876 
0.000265104      2.03934      97.8886 
2.05480e-05      1.93986      90.5984 
0.000275373      1.18867      96.7796 
0.000101715      1.99480      74.2855 
0.000291398      4.63771      75.0059 
8.93634e-05      3.92080      71.5685 
2.94037e-05      1.34078      88.3002 
6.31734e-05      1.96012      90.5922 
-0.000567675      2.66020      90.4364 
7.87503e-05      3.03824      80.9053 
0.000304118      3.59817      95.7451 
0.000111219      1.42792      101.304 
2.76150e-05      3.61833      95.7130 
5.40246e-05      3.91270      80.5846 
0.000116583      2.99487      95.7520 
0.000158648      1.34153      87.4353 
0.000155619      3.89945      79.9594 
0.000192120      4.02953      68.1451 
0.000123702      2.58760      85.5592 
9.15784e-06      1.32053      88.2742 
0.000159554      3.44815      93.9932 
-0.000242172      2.51121      107.135 
0.000106731      3.32197      96.5632 
6.96973e-05      1.53913      81.0245 
-0.000367532      4.16924      65.0354 
2.56204e-05      1.98073      73.5835 
0.000340315      4.11483      64.0564 
2.47869e-05      4.57457      73.2296 
8.18829e-05      4.65230      75.3025 
4.72898e-05      2.54133      88.1895 
-0.000178614      4.21266      63.7955 
0.000210633      2.60780      85.5937 
-0.000284984      2.04236      104.164 
3.23072e-05      3.86764      79.2656 
-0.000244247      4.23948      69.8523 
0.000129958      2.97749      96.1632 
-8.40455e-05      2.97986      90.3896 
0.000100576      3.94002      71.6617 
0.000114407      1.74251      99.2433 
-0.000272408      3.09272      70.7473 
0.000136709      3.84773      79.2094 
1.56642e-05      2.15944      74.4183 
0.000151159      4.12986      71.6572 
0.000121205      3.61637      95.3936 
-0.000105214      3.25180      79.7247 
3.02649e-05      4.58046      72.9870 
7.77141e-06      2.56547      81.9291 
4.51537e-05      3.89610      80.2420 
4.46322e-05      2.14551      73.7518 
-2.28361e-05      3.25548      79.3739 
-8.13179e-05      2.34809      66.9336 
2.96044e-05      2.56828      81.4982 
7.50685e-06      2.45865      97.0122 
1.47172e-05      1.98027      90.0000 
2.94896e-05      2.04222      98.4517 
3.66986e-05      2.43613      96.5975 
1.45790e-05      2.66919      107.895 
-0.000739052      5.51653      40.7416 
-0.000438068      12.4324     -143.702 
-9.30582e-05      5.50176      40.8742 
-0.000972368      3.28691     -21.4103 
-0.000271379      7.07900     -72.7405 
0.000745482      11.1138     -131.058 
-0.000587728      4.27838      65.7141 
0.000551006      13.3794      134.396 
0.000712402      7.27125      96.7921 
0.000676487     0.980766     -69.7210 
-0.000549358      5.48852      40.7143 
0.000407047      1.88833      174.527 
-0.000555618      7.09763     -72.7873 
-0.000526294      12.4488     -143.757 
-0.000664644      8.54222     -68.0023 
8.47999e-05      7.54913     -12.8593 
-0.000671644      7.38884     -2.79412 
0.000510571      6.61371      59.8713 
0.000796411      7.57324     -12.9691 
0.000857845      6.84745     -122.114 
-0.000234614      4.77089     -96.5024 
8.10946e-05      13.3652      134.334 
0.000157269      8.07278      76.8254 
-0.000575328      9.82073      129.298 
0.000362323      7.67266     -36.0966 
-0.000220209      3.70001      162.057 
0.000229150      8.27191      106.290 
-0.000434438      9.08511     -97.8423 
0.000696395      10.6931     -73.2576 
0.000296202      13.3797      134.273 
-7.65853e-05      12.3175      45.1975 
-0.000353298      9.80531     -40.2850 
0.000590949      10.9125     -41.2838 
-0.000290447      4.28072      66.3108 
-0.000347185      7.44591      107.023 
-0.000476912      10.1344      123.815 
-0.000280832      7.64946     -50.9443 
0.000611409      6.15456     -46.7094 
0.000476539      8.09178      76.8568 
-0.000275301      5.35191      39.9948 
-0.000279312      8.86063     -90.7764 
-0.000277891      12.3318      45.1307 
0.000544807      13.0998     -51.1362 
-0.000142973      6.78185     -157.820 
0.000280791      3.06171     -1.86798 
0.000470266      11.1157     -130.916 
-0.000469461      11.4866     -130.764 
-7.19358e-05      9.34736      10.8508 
0.000400388      12.0095      43.7190 
-0.000139021      10.2205      7.19546 
0.000114584      11.4977      59.2421 
-0.000204098      7.06830      101.755 
-0.000335248      7.10343     -72.6369 
0.000199872      7.96835     -137.339 
-0.000452728      14.1436     -134.198 
0.000139578      12.8343     -43.0430 
6.99241e-05      11.0931     -131.564 
-0.000199617      9.82204     -147.898 
-0.000200595      12.4372     -143.830 
-6.93292e-05      4.76863     -96.2605 
0.000266296      13.3939      134.335 
-0.000134288      7.78688      79.6408 
-0.000290726      7.42811      22.1421 
-0.000133967      7.15689      64.5070 
-0.000273134      4.28475      171.683 
-0.000299066      4.03488      162.108 
0.000260086      4.13905      167.445 
0.000195237      7.71302     -118.161 
-0.000197662      4.28610      67.4982 
0.000257501      6.34112      4.70396 
-0.000320755      13.0881     -140.642 
0.000323101      12.8777     -42.9859 
-0.000129646      4.52492     -66.8363 
-0.000193575      9.93067      7.75600 
-0.000194706      8.98414     -23.4839 
0.000193596      13.3698     -40.9354 
-0.000193339      6.75545     -157.914 
0.000256853      3.06113     -1.50300 
0.000128156      11.4699      59.2773 
-0.000126810      3.30578     -21.2822 
6.48131e-05      8.29684      106.380 
-6.46289e-05      9.80506      129.373 
0.000189504      8.89432     -19.5738 
-6.39464e-05      7.37901     -10.3043 
-6.38719e-05      10.0380     -170.482 
6.36351e-05      4.54201     -1.77040 
0.000125930      8.23294      156.676 
-0.000124736      7.69351     -14.1420 
-6.30540e-05      7.67796     -50.9222 
-6.27609e-05      8.43783      174.560 
-6.27346e-05      7.36519      35.7175 
-6.24031e-05      10.0033     -3.89699 
-6.23258e-05      10.6076      15.5306 
6.21902e-05      9.67647     -65.7127 
6.22200e-05      11.1200     -131.720 
-6.20366e-05      9.44081      101.238 
6.19623e-05      7.02439     -13.1648 
6.19306e-05      8.60904      142.173 
-6.19904e-05      7.39894     -10.2763 
-6.18279e-05      12.3461      45.0640 
-6.15562e-05      7.64727      63.4324 
-0.000643478      10.1641      1.57799 
0.000592971      8.08777     -169.025 
0.000401488      11.7726     -55.3102 
0.000143953      3.42832     -82.6308 
-0.000395280      8.69995      131.458 
0.000138453      3.43098     -82.2952 
0.000139009      8.03620      99.7411 
0.000371551      8.20662      156.745 
-0.000355354      7.10049      131.234 
0.000133428      8.28011      105.981 
0.000910143      9.62872     -19.7878 
-0.000684711      12.4099     -38.5878 
0.000130140      11.6433      43.3992 
0.000189103      9.32155     -1.10703 
0.000348881      8.01294      99.6282 
6.52647e-05      8.10767     -169.052 
-0.000178925      5.53031      46.0280 
-0.000279150      11.3563      137.855 
0.000381839      12.3039     -45.3953 
-0.000542595      9.09190      164.956 
-6.38636e-05      9.15959      101.972 
0.000419646      3.45382     -82.0072 
-0.000364324      10.1809     -37.6579 
-0.000434550      5.25329     -28.4210 
0.000223935      10.3240     -72.7583 
-0.000501417      9.69695      59.0963 
0.000180732      8.28571      106.116 
-0.000799777      10.9493     -24.0390 
-0.000233610      8.82963      103.090 
0.000235029      5.32067     -19.9990 
-6.21336e-05      2.78922     -22.3424 
0.000222062      10.0685      137.979 
6.13365e-05      4.53435     -11.7060 
0.000279178      11.6182     -54.1767 
-0.000394204      9.03991     -43.4764 
0.000270933      6.56565      153.983 
-0.000116687      9.17472      129.694 
5.93486e-05      4.00980     -71.3820 
-0.000164901      2.79670     -22.7121 
0.000112254      8.94570     -84.2277 
0.000320003      11.8973      147.914 
-0.000109955      6.88274      48.0625 
0.000157255      7.98105     -164.742 
-0.000109754      8.90932      129.443 
-0.000149285      8.64511      5.84371 
-0.000109016      7.48427      97.5240 
-0.000102712     0.116465      148.973 
5.51690e-05      8.65785      139.873 
-0.000108789      10.3906      54.3219 
0.000104130      8.29136      106.250 
5.47777e-05      5.78141     -100.764 
5.42119e-05      7.05990      89.5128 
-0.000476719      12.5595      125.536 
-0.000145060      7.18359      64.4360 
0.000333099      6.98020     -124.966 
0.000104061      6.75793     -28.8389 
-0.000189806      12.6382     -131.536 
-0.000103455      9.14658      162.438 
5.31851e-05      8.91354     -136.637 
0.000149929      11.3552      118.282 
-0.000147449      10.0026     -83.5691 
0.000403553      6.90085      89.0031 
-0.000228402      9.02717     -103.974 
-0.000277255      8.62697      5.98631 
5.25857e-05      9.34180     -1.10463 
0.000199913      11.9252      147.883 
-0.000101179      9.16227      129.600 
0.000183690      11.7778     -55.4473 
0.000276403      5.30234     -20.0711 
-0.000136217      7.19047      128.339 
-5.17321e-05      9.13978      101.998 
-0.000266282      10.2403      176.416 
-0.000340328      6.80093     -129.870 
0.000172779      8.24119    -0.975619 
-5.11163e-05      10.3788      54.4127 
-9.72445e-05      2.40834      168.498 
0.000475609      12.8044     -43.2926 
-0.000138619      6.91135      48.0498 
-0.000184225      8.89646      129.342 
-5.03122e-05      3.81093     -112.530 
-0.000226366      7.48164      97.3702 
0.000138105      8.94776     -84.0986 
4.98322e-05      12.9785     -137.310 
4.98645e-05      10.5479      29.2858 
-0.000263809      7.44022      106.880 
9.28709e-05      5.78523     -100.962 
-0.000432776      10.4065      54.3845 
9.45138e-05      11.0203      28.9822 
-4.90119e-05      9.02248     -103.854 
-4.89102e-05      5.06710     -95.8904 
-4.88089e-05      6.15580      23.1491 
-9.03162e-05      10.2165     -176.745 
0.000357335      13.0071     -137.305 
0.000318321      11.1137     -157.126 
-0.000131848      2.77871     -22.8674 
0.000137229      11.5899     -54.1993 
-0.000176891      8.80549      102.996 
0.000290415      11.7414      51.4323 
0.000158171      11.0521      42.8732 
-0.000135895      12.4271      47.3467 
8.71088e-05      8.26625      106.155 
9.01127e-05      8.35925      138.490 
0.000135708      13.3359      135.303 
-0.000363210      9.09718      164.832 
-8.97001e-05      10.6894      33.2427 
8.95318e-05      10.5309      29.3377 
4.69861e-05      7.12726     -31.4593 
-0.000249383      12.2324     -37.2270 
0.000754412      7.95550      51.4297 
4.66265e-05      3.79073     -82.7216 
0.000208148      7.96223     -164.705 
-0.000297122      9.09911     -97.5775 
4.61673e-05      4.19767      167.623 
0.000794207      11.9080      147.831 
4.61007e-05      8.67335      139.959 
4.59959e-05      6.74084     -28.9189 
-0.000125318      7.32469     -143.662 
-0.000167275      6.12697     -7.12676 
-8.68731e-05      9.79434      10.8278 
4.55576e-05      4.81957      60.1378 
4.54607e-05      7.04039      89.5115 
-4.53680e-05      9.98495     -139.386 
0.000434374      8.30106     -30.3944 
4.52627e-05      10.0541      137.904 
8.79665e-05      12.5190      47.9786 
0.000242840      13.0064     -48.4919 
-0.000123440      6.17375      23.0779 
-0.000571613      10.7290      122.980 
-0.000125917      9.82244      161.234 
-0.000458511      10.0003     -139.461 
-0.000163077      12.4265      47.2171 
0.000161791      3.79325     -82.4293 
4.40326e-05      4.03525     -71.2113 
-0.000321991      10.6673      33.4508 
0.000315423      4.17788      167.564 
-4.36898e-05      10.3489     -26.2696 
-0.000121621      9.07262     -11.1835 
0.000122892      10.3180     -72.8657 
-0.000120634      8.77220     -108.065 
-0.000164259      9.82361      129.131 
-0.000189624      10.6691     -110.404 
4.31519e-05      7.44367     -110.772 
0.000115046      9.58808      108.361 
-0.000111167      11.9880      142.728 
-4.18927e-05      7.78447      94.5669 
4.18936e-05      7.80931      27.2865 
0.000317513      7.45088     -110.917 
0.000249893      10.8026     -28.6533 
-4.14713e-05      10.1349      131.079 
0.000114990      3.75141     -158.084 
0.000115591      11.5785     -54.2776 
-0.000767207      10.4282      69.6886 
0.000620705      12.5466      47.9720 
8.06168e-05      13.3221      135.363 
0.000954557      11.1216     -157.030 
-0.000312826      11.4325     -33.8027 
0.000139984      4.75878     -5.06601 
-4.08765e-05      4.77555     -96.9765 
-0.000528960      8.80238      105.552 
0.000118070      10.1819     -42.0547 
4.05474e-05      8.18703      140.750 
0.000357859      6.99140     -125.097 
-7.32590e-05      10.3670     -26.2201 
-0.000149496      5.26261     -28.6079 
-0.000215902      10.0162     -126.801 
7.48643e-05      8.57410     -43.2978 
4.00510e-05      10.5132      29.3918 
-0.000151000      8.83942     -158.778 
-0.000179194      10.1221      130.996 
0.000107044      8.50259     -59.1524 
0.000247622      7.73088     -118.090 
3.94962e-05      8.17139      138.075 
7.37715e-05      4.71872      162.490 
-7.32063e-05      7.50173      97.3504 
-0.000182688      12.9169      39.4084 
-3.88788e-05      8.80095      102.868 
0.000319712      12.7763     -43.2865 
