! Center RA: 12 21 31.69052,  Dec: +28 13 58.50019 (2000.0)
! Established model.
! Flux (Jy) Radius (mas)  Theta (deg)  Major FWHM (mas)  Axial ratio   Phi (deg) T \
! Freq (Hz)     SpecIndex
 0.0274474     0.282706     -98.0871 
 0.0123358     0.262662     -98.7088 
0.00739902     0.280627     -94.1402 
0.00586814     0.260423     -94.4620 
0.00142028     0.243395     -99.4042 
0.000533060     0.189835     -108.435 
0.00827097     0.170734     -110.586 
0.000792457     0.145849     -105.824 
0.00128258     0.126477     -108.327 
0.00460303     0.300838     -93.8616 
0.00104645     0.107434     -111.727 
0.00209270    0.0896014     -116.350 
0.00159561    0.0633577     -108.650 
0.00578515    0.0446338     -116.996 
0.00279435     0.300155     -90.0000 
0.00244787     0.320306     -93.6266 
0.000374319     0.271765     -72.8159 
0.00154558     0.200353     -90.0000 
0.000601224     0.219863     -90.0000 
0.000294680     0.220795     -84.7351 
0.000292094     0.181229     -96.4188 
0.000574394     0.240977     -85.1771 
0.000811606     0.262662     -81.2912 
0.000553242     0.260423     -85.5380 
0.00206581     0.280627     -85.8598 
0.00124129    0.0720098     -123.524 
0.00155985     0.164706     -103.973 
0.000702235     0.253192     -71.5114 
0.00204270    0.0562440     -135.000 
0.00106838     0.260038     -67.4310 
0.00380172    0.0446338     -153.004 
0.000961622     0.268467     -63.4349 
0.000958199     0.322129     -97.0919 
0.000186512     0.250509     -61.3621 
0.000715967     0.325253     -100.636 
0.00167037     0.260826     -57.4530 
0.00134228    0.0397705      180.000 
0.000341609     0.339925     -90.0000 
0.000817729     0.304558     -113.217 
0.000791090     0.340529     -86.5891 
0.000919070    0.0633577      161.350 
0.00203587     0.271820     -53.9843 
0.00124672     0.313099     -116.626 
0.000147984     0.342244     -83.3269 
0.000291493    0.0896014      153.650 
0.00167507     0.362375     -83.6991 
0.00109592     0.116465      148.973 
0.00115790     0.152624     -113.162 
0.00157409     0.178866     -116.673 
0.00176289     0.144435      146.227 
0.000352282     0.331336     -115.056 
0.000450863     0.322315     -119.728 
0.000966488     0.365154     -80.5377 
0.00207591     0.284207     -50.6787 
0.000112045     0.341468     -110.586 
0.000736043     0.354273     -106.362 
0.00163122     0.156126      140.265 
0.000642966     0.369026     -77.4333 
9.61454e-05     0.332828     -122.759 
0.00101884     0.360505     -109.453 
0.000172725     0.315980     -124.747 
0.000588462     0.373757     -74.5128 
0.00225056     0.283342     -45.0000 
0.00130355     0.188432     -121.981 
0.000499103     0.172194      144.578 
0.000753476     0.373757     -105.487 
0.000772896     0.169793      135.000 
0.000420207     0.327950     -127.657 
0.00102585     0.184676      139.449 
0.000638398     0.379669     -71.5651 
0.000927995     0.379669     -108.435 
0.000367334     0.386554     -68.7149 
0.000124548     0.340220     -130.259 
5.96919e-05     0.184676      130.551 
0.000110953     0.325575     -132.478 
5.83339e-05     0.220795      95.2649 
0.000669157    0.0828082     -75.8378 
0.000149222     0.349279     -103.290 
0.00107971     0.345185     -100.015 
0.000310464    0.0600310     -90.0000 
7.82733e-05     0.184676     -49.4492 
7.67899e-05     0.212689     -48.7190 
0.000364818     0.226037     -45.0000 
0.000465573     0.240790     -48.4109 
0.000138123     0.288454     -123.649 
6.75459e-05     0.260826     -122.547 
0.000258932     0.233573     -120.932 
0.000915018     0.205897     -118.994 
6.22539e-05     0.388092     -78.0600 
0.000418324     0.188432      148.019 
0.000738482     0.254690     -45.0000 
0.000294138     0.392593     -75.2732 
0.000206615    0.0633577     -161.350 
0.000108100     0.205897      151.006 
0.000270524     0.216445      146.310 
0.000369663     0.398226     -72.4528 
0.00152573     0.219863      90.0000 
0.000199248     0.367749     -112.431 
0.000246730     0.233573      149.068 
0.000147395     0.269397     -48.0484 
9.71165e-05     0.339586     -135.000 
0.000283201     0.404795     -69.7174 
0.000405451     0.269397     -41.9516 
0.000139479     0.250509      151.362 
4.57612e-05     0.353651     -137.236 
0.000597086     0.430710     -68.2171 
0.000300093     0.268467      153.435 
0.000725354     0.558204     -165.441 
0.000403889     0.216445     -123.690 
0.000602438     0.386554     -111.285 
0.000283376     0.288454     -56.3513 
0.000230071     0.295127      151.610 
0.000308908     0.372066     -143.777 
0.000113010     0.284207     -39.3213 
0.000317667     0.304887     -58.3833 
7.35687e-05     0.388092      168.060 
0.000525925     0.626742      16.6992 
0.000415151     0.271820     -36.0157 
0.000103230     0.407936      168.649 
3.53408e-05     0.260826      147.453 
0.000134659     0.394577      149.485 
6.82500e-05    0.0286526     -135.000 
3.42613e-05     0.438632     -65.7588 
0.000401635     0.228306     -127.925 
0.00112840     0.457182     -66.8014 
0.000781495     0.241454      24.4145 
0.000126985     0.240977      85.1771 
6.42635e-05     0.427819      169.183 
0.000395064     0.404795     -110.283 
3.19555e-05     0.228306      142.075 
0.000205825     0.421988      148.599 
3.14594e-05    0.0202604     -90.0000 
0.000935319      1.96012      118.665 
0.000215546     0.424483      171.870 
0.00136173     0.576909     -123.649 
8.88550e-05     0.282706      81.9129 
2.99646e-05    0.0286526     -45.0000 
0.000480184     0.892851      34.0373 
0.000163901     0.592344     -168.306 
0.00108424     0.665204      96.9326 
5.58994e-05     0.199903      143.087 
8.28190e-05     0.645453      16.2016 
0.000188464     0.306099      78.6901 
0.000199111     0.212689      138.719 
0.000733073     0.756280     -127.461 
0.000131255     0.443806      172.226 
0.000298910     0.449253      147.690 
2.60758e-05     0.670704      17.3808 
2.57102e-05     0.747714      15.5426 
2.54279e-05     0.588377     -125.291 
0.000170001     0.766529      15.1518 
0.000121973      1.82471      136.333 
0.000119322     0.329594      75.9005 
4.89600e-05     0.463888      172.565 
2.44892e-05    0.0633577     -18.6495 
0.000222932     0.952783      129.054 
0.000115349     0.612198     -168.690 
0.000238128      2.24037      110.365 
0.000535450      3.47231      111.981 
0.000114347     0.506166      170.873 
0.000241479     0.398226     -107.547 
0.000198790     0.876751      34.7510 
0.000231510      1.83876      135.876 
0.000371353     0.786103      14.7658 
0.000109188      2.96026      120.901 
4.41385e-05    0.0828082     -14.1622 
0.000793677      1.86666      45.0000 
6.53999e-05     0.334882      72.6613 
0.00128206     0.940150      128.096 
0.000162699     0.526180      171.223 
2.10332e-05      1.81836      140.358 
6.17329e-05     0.341468      69.4145 
6.04101e-05     0.627803     -170.853 
0.000317896      2.97033      121.224 
0.000132374      1.80551      140.853 
0.000946216      2.22110      92.0717 
0.000117002     0.810035     -159.786 
9.66894e-05     0.860182      35.5202 
2.00158e-05     0.101837     -11.4755 
0.000165716      1.71589      130.762 
0.000122096     0.349107      66.3001 
0.000300081     0.288454     -33.6487 
0.000218813     0.466502      149.020 
9.97378e-05     0.394577     -149.485 
3.66845e-05     0.681013     -176.652 
1.84857e-05     0.828371     -160.252 
0.000877067     0.804984      14.4119 
3.63284e-05     0.404436      171.464 
0.000347713     0.848995     -145.551 
0.000119014      2.23366      109.896 
0.000276543     0.840993     -162.018 
0.000574974     0.357396      63.4349 
0.000158390     0.546212      171.547 
0.000103847     0.843774      36.3196 
1.79844e-05      1.85335      136.312 
0.000111429     0.362375      173.699 
0.000265124     0.700404     -178.342 
0.000537568      1.88094      136.293 
0.000636853      1.85239      44.5569 
0.000751642     0.771858     -126.580 
6.25200e-05      1.82068      141.241 
0.000466556     0.392593     -104.727 
0.000227459      1.70273      130.245 
0.000142594     0.465536     -64.5089 
1.64034e-05     0.420241     -154.625 
0.000240013      1.28540      74.6657 
0.000107897     0.828135      37.1191 
0.000282262      1.19644      141.800 
0.000233767     0.198446      135.000 
1.59326e-05      1.18058      141.192 
0.000214856      1.95048      118.143 
0.000443084     0.366905      60.6039 
0.000118254      2.55891      117.963 
7.32473e-05      2.20774      109.580 
5.96800e-05      1.38517     -175.028 
-0.000286171      1.83199      79.3068 
2.71327e-05     0.121759     -9.57842 
0.000375755      1.36499     -174.954 
0.000273301      3.48389      111.558 
0.000330329      2.95302      121.428 
0.000141342      2.02389      142.229 
0.000725067      1.27218      73.5532 
4.22962e-05     0.812072      37.9818 
0.000456644     0.860287     -162.434 
0.000666026      2.58566      118.157 
0.000140400     0.784101      37.7692 
6.27165e-05     0.260038      22.5690 
0.000156076      2.20128      109.102 
1.34734e-05      2.88926      115.853 
0.000108428     0.510656      149.441 
0.000101009     0.645096      97.1498 
0.000100342      2.91634      116.038 
8.31124e-05     0.342244      173.327 
0.000242512      1.66419      94.1372 
0.000510631      2.33468      83.6151 
1.22363e-05      1.22431      141.620 
0.000134613      1.24025      142.201 
0.000133056     0.622720      95.5320 
0.000177157     0.768771      38.6598 
0.000106126      1.68971      129.721 
0.000139518      2.90751      115.679 
-0.000641689      2.44429      93.2911 
0.000587861      2.22189      92.5744 
0.000350517      1.32737     -173.932 
0.000239099      2.03995      142.578 
0.000213769     0.701240     -176.749 
4.18008e-05      1.92307      117.895 
3.93747e-05     0.268467      26.5651 
6.95116e-05     0.528203      150.558 
-0.000239951     0.907248      165.975 
3.07319e-05     0.512905      110.556 
6.57927e-05     0.322129      172.908 
3.98286e-05      2.74946      113.585 
0.000153450     0.304887     -31.6167 
0.000191343     0.865779     -146.310 
7.77600e-05      1.25632      142.767 
3.00878e-05     0.824622      14.0615 
-0.000174429      1.85117      79.4189 
3.98064e-05     0.605655      97.6181 
3.82284e-05     0.759338      108.435 
-0.000553190      2.27760      120.621 
0.000315321      1.64231      92.8023 
0.000107670      1.91402      117.379 
9.70943e-06     0.565518      171.838 
0.000148405     0.506146      108.408 
0.000238985     0.568616      169.891 
0.000132114      1.90958      136.274 
0.000210889     0.603304      95.7106 
6.20351e-05      3.49111      111.856 
3.55823e-05     0.937714      129.806 
1.79192e-05     0.501018      151.362 
6.65781e-05      1.27191      143.299 
5.79823e-05     0.765732      109.820 
1.76878e-05      1.22794      142.948 
1.71786e-05      2.74142      113.197 
0.000212559      2.33259      84.0913 
4.01789e-05     0.753057      39.6228 
-0.000347919      2.40931      108.881 
-0.000384243     0.902718      167.177 
-1.73307e-05      1.82042      125.623 
8.41954e-05      2.19473      108.602 
0.000169468     0.518891      152.434 
8.13910e-05      2.06843      99.4589 
0.000263125      1.86688      44.1206 
-0.000469376      1.83185      126.119 
0.000210932      1.30722     -173.838 
-0.000165585      1.02448     -141.334 
0.000144079     0.819935      12.6881 
7.90105e-05      1.90479      116.838 
-0.000274985      1.87109      79.5328 
0.000143795     0.474259     -62.3808 
0.000113784      3.50205      111.441 
8.09587e-06     0.197181     -114.029 
-0.000161688      2.56219      102.620 
-5.46281e-05     0.621094     -86.3287 
2.13074e-05     0.402700     -153.435 
1.51519e-05     0.720656     -178.389 
0.000114637     0.878907     -162.818 
0.000162295      2.14099      81.9409 
0.000362095      2.60354      117.946 
0.000221387      2.16031      126.341 
7.20297e-05      2.09107      99.9187 
4.93840e-05     0.388092     -101.940 
0.000140938     0.593248     -122.605 
-0.000221645     0.640080     -90.0000 
5.82191e-05      1.28821      143.838 
-0.000225392      1.42845      134.447 
0.000117306      1.25557      67.5118 
1.46303e-05     0.377263     -147.922 
0.000100234      2.33059      84.5868 
0.000128939      1.93204      117.102 
9.87385e-05      1.79615      135.457 
-0.000155971      1.08833     -143.976 
2.05100e-05      1.96255      92.9149 
-0.000226133      2.26019      120.882 
-0.000125969      1.78036      91.2800 
7.00283e-06     0.126477     -18.3275 
0.000131576      2.35001      84.6317 
7.25780e-05     0.322315     -60.2717 
1.36422e-05      1.25991      144.038 
3.92952e-05     0.722868      94.7636 
1.97418e-05      1.75316      101.180 
-2.60613e-05      1.00874     -140.615 
4.53114e-05      2.34159      100.824 
3.88563e-05      1.30462      144.363 
6.43556e-05      1.76750      135.464 
3.86427e-05     0.588572      170.237 
2.56672e-05      2.08767      99.3709 
-5.75684e-05      2.44321      92.8167 
3.18573e-05     0.582967     -120.989 
2.55525e-05      2.93639      121.627 
-3.16208e-05      1.89101      79.6443 
1.27126e-05     0.384685     -152.085 
6.35490e-06     0.278118     -30.3009 
6.35264e-06     0.585580      97.8809 
6.25025e-06      1.88104      44.5636 
-0.000201478      8.49645     -129.460 
-0.000250386      8.49974     -129.271 
0.000635736      4.15521      147.380 
0.000304958      9.44081     -42.6808 
-0.000358271      10.3631     -159.081 
0.000114304      8.51950      48.9033 
0.000541647      9.74438     -143.177 
0.000462488      8.53234      48.8046 
-0.000346133      8.48407     -129.358 
0.000642408      6.39417     -165.135 
-0.000120681      7.55459     -67.9164 
0.000448750      9.47650      24.8341 
-0.000435111      3.29112     -130.562 
-0.000875952      4.84076      159.691 
0.000117211      4.71559      124.628 
-0.000523396      7.54700     -68.0590 
-0.000168000      8.43707     -56.7975 
0.000112060      3.56523      79.0070 
0.000310140      9.45455     -42.7711 
0.000321326      4.72713      124.830 
0.000610327      5.34628      105.183 
-0.000377358      1.60411     -144.116 
0.000348437      3.56156      79.3151 
-0.000506267      6.53474     -78.3468 
0.000352535      1.97208      22.6719 
0.000252972      4.89526     -136.652 
0.000353676      5.95158      172.473 
-5.48721e-05      12.7880      46.2672 
0.000209189      6.31115      159.212 
-0.000349570      10.3442     -159.041 
0.000298242      7.74884      77.3298 
-0.000244156      8.44777     -56.6868 
-5.29934e-05      10.1235     -129.064 
-0.000339865      12.7734      46.2044 
0.000342156      4.60604      156.994 
0.000195769      2.51441     -58.3354 
-0.000147665      5.13468      31.4577 
-0.000243883      8.45626      53.0762 
0.000243727      10.2478     -132.629 
0.000149212      6.55439      100.728 
-0.000243196      7.01150      105.385 
0.000288546      2.81171      174.702 
-0.000288493      10.2411      41.7566 
-0.000238903      10.1113     -128.979 
-0.000242621      3.34575     -168.617 
0.000241320      10.7869     -61.0600 
-0.000191778      5.60372      177.951 
-5.07452e-05      6.52042      75.0682 
0.000143419      4.95946      57.0168 
-0.000142319      2.25539     -169.786 
0.000283402      4.71051      124.971 
0.000235892      9.90279      122.630 
-0.000327075      9.13011      125.642 
-0.000143194      3.71110      97.4354 
0.000141535      9.48502      24.9451 
-0.000187203      9.65933      31.4538 
-0.000233952      6.53410      75.2839 
-0.000234365      12.5604     -43.9688 
0.000187642      8.50425      48.8136 
9.62166e-05      4.16145      147.766 
-9.33898e-05      10.7001      142.594 
0.000138256      6.55805      100.896 
-4.85227e-05      6.57628     -148.047 
0.000142595      4.45596     -155.049 
-0.000139552      5.30572      125.491 
0.000185786      6.25973      168.760 
0.000139074      6.32225      159.446 
-0.000138099      12.7757      143.274 
-0.000140061      10.7124      142.508 
-9.32326e-05      11.1554      42.3828 
-4.73110e-05      3.27576     -130.792 
4.68028e-05      3.25475     -120.662 
0.000136835      12.2261      142.045 
4.66196e-05      4.10264     -11.5319 
-4.66708e-05      9.58217      32.2974 
-9.07533e-05      7.32943     -32.5202 
-0.000135870      8.54036     -77.5586 
0.000179705      12.0941      40.9117 
9.09995e-05      6.40383     -1.96753 
-4.60750e-05      7.98994      44.6956 
9.06466e-05      4.14433      147.616 
-4.59531e-05      5.58421      177.744 
-5.85245e-05      13.0702     -43.7601 
0.000115312      4.43760     -154.939 
8.92444e-05      5.88236      54.6900 
8.97954e-05      6.46109     -131.488 
8.89687e-05      7.05219     -55.0484 
-4.49290e-05      3.08529      105.027 
4.48371e-05      10.1545      141.077 
4.45762e-05      4.08353     -11.5866 
4.45094e-05      5.42358      118.647 
4.44875e-05      5.75998     -26.3915 
-4.43449e-05      3.01548     -114.696 
4.42171e-05      12.9024      43.4918 
4.41615e-05      10.3437      169.191 
4.40055e-05      8.74418     -143.838 
4.40132e-05      3.26513     -120.968 
4.40268e-05      2.53168     -58.5761 
0.000375874      5.34101      104.973 
-4.39676e-05      8.19753     -125.669 
-0.000310677      1.72107      38.8588 
4.39515e-05      2.06455      58.4648 
4.39351e-05      13.0118     -40.3243 
0.000285755      4.06097     -30.4790 
4.37925e-05      3.00406     -72.1670 
-4.38396e-05      12.3104     -51.9964 
-0.000434630      5.35838      12.0684 
-0.000367773      12.5476      40.0877 
0.000664420      5.60024     -152.336 
0.000289440      10.1511      96.7883 
-0.000107217      8.79180     -164.698 
0.000323502      10.9483      63.0609 
-0.000243218      5.14528      31.6502 
-0.000103754      6.30730      10.5987 
-0.000458248      5.86561      59.2386 
-0.000216395      8.77226     -164.663 
9.92360e-05      6.09383      96.0293 
-5.05610e-05      9.06317     -66.3193 
0.000261705      4.39202     -154.367 
-0.000455953      8.22078     -125.894 
-0.000546507      4.38395      96.0229 
0.000184421      3.72225     -100.524 
9.58490e-05      4.95270      81.6366 
-0.000287388      10.5825      38.8635 
-0.000137493      10.3849     -161.706 
0.000216641      3.29450     -150.948 
-0.000218181      6.28006     -145.245 
-4.84411e-05      6.30361      10.4177 
-0.000211854      3.63368     -49.9172 
4.73704e-05      3.23798     -120.839 
0.000209720      13.4385      133.674 
-4.70769e-05      5.36433      30.9638 
-0.000212450      2.88695      86.0205 
-0.000246928      9.12786      143.104 
-0.000318613      9.04057     -36.3620 
-0.000205305      3.92048     0.877355 
-0.000165389      5.38771      65.4339 
0.000210441      6.09600      96.2187 
8.72966e-05      7.90482      49.8246 
-0.000276245      6.28442      10.4499 
0.000269520      7.71951      25.9648 
0.000161678      3.22061     -121.023 
-7.95642e-05      9.08956     -66.2580 
-0.000125768      12.8272     -44.5592 
-0.000160933      5.38171      30.8528 
-7.71252e-05      9.41957     -117.437 
-0.000103824      10.0636     -128.464 
0.000158958      4.32072      88.9352 
0.000121588      8.56241      61.9999 
-8.29239e-05      6.86682      137.715 
0.000159870      4.97274      81.6706 
0.000234115      3.88500     -125.575 
-8.12031e-05      11.2699      26.1112 
4.23159e-05      8.66909      11.9850 
0.000369716      8.21539      31.5588 
4.19585e-05      13.7184     -134.408 
-0.000154284      9.31899     -164.053 
-4.10936e-05      12.5327      40.1451 
-0.000480271      10.0736     -128.713 
-4.09285e-05      9.42858     -117.542 
4.08459e-05      8.88197     -81.3216 
0.000115721      9.10247      12.6912 
-4.04521e-05      5.16254      31.5322 
-4.03312e-05      1.22288     -164.847 
7.91927e-05      6.68270      159.506 
0.000283732      8.05829      125.506 
0.000177608      5.35074     -161.700 
-0.000208099      7.19896     -172.658 
-0.000184433      5.88332      138.998 
7.69914e-05      3.71874     -100.228 
