! Center RA: 12 21 31.69052,  Dec: +28 13 58.50011 (2000.0)
! Established model.
! Flux (Jy) Radius (mas)  Theta (deg)  Major FWHM (mas)  Axial ratio   Phi (deg) T \
! Freq (Hz)     SpecIndex
 0.0788829      1.52028      90.0000 
 0.0532657      1.50002      90.0000 
0.000488096      1.56005      90.0000 
0.00310403      1.58044      89.2655 
0.00407128      1.53979      90.0000 
0.00168425      1.56019      89.2559 
0.00943460      1.59995      89.2744 
0.00999057      1.62057      88.5938 
 0.0136014      1.75977      89.3403 
0.00974818      1.47976      90.0000 
0.00352044      1.75966      90.0000 
 0.0239031      1.62021      89.2835 
 0.0169378      1.47990      89.2156 
0.00602260      1.78003      89.3478 
 0.0107721      1.77992      90.0000 
0.00533209      1.46039      89.2051 
0.00501286      1.46079      88.4399 
0.000235212      1.80197      87.4462 
0.00119294      1.92035      89.3955 
0.00115905      1.75977      90.6597 
0.000221795      1.80294      86.8268 
0.000208814      1.78396      86.1410 
0.00100421      1.93986      89.4016 
0.000926102      1.78544      85.4923 
9.92355e-05      1.92024      90.0000 
0.00234467      1.76011      91.2947 
0.00112845      1.93975      90.0000 
0.000404438      1.78708      84.8687 
0.000278721      1.47990      90.7844 
0.00184717      1.90093      88.1903 
0.000184262      1.60095      87.8511 
0.00106091      1.62120      87.8779 
0.000842970      1.78036      91.2800 
0.000653147      1.50016      90.7738 
0.000560446      1.92192      87.6057 
0.00127394      2.08017      90.5581 
7.63890e-05      1.62207      87.1627 
0.000708690      2.10043      90.5527 
0.00115966      1.64144      87.9041 
0.00225328      2.52011      90.9042 
0.00218469      1.92118      88.2094 
6.36950e-05      2.11994      90.5476 
0.000184579      2.14020      90.5424 
0.000122101      1.78003      90.6522 
0.000933093      2.04030      90.0000 
0.000820585      2.16046      90.5373 
5.83818e-05      1.74747      84.7521 
0.000823369      1.74944      84.0913 
0.000472344      2.54077      91.3539 
0.00232672      2.54037      90.8970 
0.000152065      1.74060      91.3092 
0.000145389      1.72035      91.3247 
0.000947501      2.17997      90.5325 
0.00134298      2.04040      90.5689 
9.22842e-05      1.70009      91.3405 
0.000240202      2.18024      91.0452 
4.56278e-05      1.60184      87.1269 
0.00102753      1.75164      83.4321 
0.000212819      1.74118      91.9758 
8.76602e-05      1.68059      91.3560 
0.000241500      1.60293      86.4304 
0.000122512      1.66033      91.3726 
0.000878062      4.00935      120.914 
0.000278751      1.76068      91.9539 
0.000329423      1.66094      92.0713 
0.000340051      2.05991      90.5635 
3.74800e-05      1.81980      90.6379 
7.28677e-05      1.94068      88.2274 
3.64053e-05      1.80062      91.2656 
0.000485564      1.86021      90.0000 
0.000347929      1.94141      87.6297 
0.000282152      1.58487      85.6554 
0.000415861      2.20023      90.5276 
0.000364373      1.66180      92.7694 
0.000156293      1.48030      91.5395 
0.000982036      3.00441      120.831 
0.000214028      1.44223      86.8086 
3.09778e-05      1.64231      92.8023 
0.00228115      1.75398      82.7990 
3.01828e-05      1.84006      90.6309 
0.00142671      3.62009      90.6295 
0.000377263      1.48098      92.3231 
0.000306241      1.87972      90.0000 
0.000968242      2.20049      91.0356 
0.000715094      1.44345      86.0353 
0.000316801      4.02674      120.766 
0.000102957      1.64338      93.4817 
7.91545e-05      1.94232      87.0547 
0.000383848      1.58653      84.9258 
0.00156902      2.91975      80.5328 
0.000961828      1.74200      92.6418 
0.00182059      1.53286      105.125 
7.19046e-05      1.96368      86.4947 
0.000180911      1.96093      91.7543 
0.000509787      1.48194      93.1058 
2.40197e-05      1.68203      92.7360 
0.000114081      4.04417      120.619 
0.000680025      1.72176      92.6729 
6.65082e-05      1.66285      93.4409 
0.000129637      2.46009      90.9263 
0.000167222      1.96503      85.9050 
0.000253560      2.54014      90.4570 
0.000425935      2.91649      80.9254 
8.44682e-05      4.06097      120.479 
0.000536248      1.96165      92.3458 
9.19439e-05      1.60597      95.0126 
0.000482501      4.08871      120.580 
0.00106686      2.56102      88.6569 
0.000465604      2.44058      90.9337 
0.000113608      2.56040      90.4534 
0.000195620      1.96652      85.3380 
0.000440333      2.79850      83.4409 
0.000548122      3.64034      90.6260 
0.000312385      1.48312      93.8584 
0.000104917      1.42480      85.1662 
0.000229301      2.56063      90.8899 
0.000579458      1.42665      84.3554 
0.000447677      1.56822      84.1503 
0.000627429      3.61992      90.3207 
0.000562902      2.98768      121.023 
0.000263517      1.60779      95.7053 
0.000207194      1.96827      84.7502 
0.000105249      3.99262      121.058 
8.97591e-05      1.46149      92.3541 
0.000184291      2.56102      91.3431 
0.000378264      1.46246      93.1472 
0.000161807      1.97022      84.1635 
0.000537328      4.11647      120.679 
0.000466268      2.81788      83.4863 
0.000146420      2.22046      91.5492 
0.000138617      2.56158      91.7962 
0.000293614      2.44100      91.4092 
0.000119242      1.97230      83.5996 
0.000415865      1.96255      92.9149 
6.34573e-05      1.83995      90.0000 
2.93217e-05      2.20095      91.5629 
0.000182301      3.97528      121.209 
4.10248e-05      1.48463      94.6386 
2.05837e-05      1.50881      104.575 
0.000191733      1.59054      96.5014 
0.000195099      2.84844      77.4319 
0.000325110      1.97467      83.0154 
8.66399e-05      1.51404      105.317 
0.000357873      1.46366      93.9098 
0.000181939      2.52775      94.5461 
3.13904e-05      2.58108      91.7826 
5.25721e-05      1.48921      104.771 
0.000217643      1.42870      83.5767 
0.000175446      1.53827      105.853 
0.000276087      2.85292      77.0348 
0.000159846      1.46471      104.236 
3.98249e-05      3.58032      89.3635 
4.55045e-05      2.79634      83.8381 
6.23739e-05      2.22110      92.0717 
8.85920e-05      3.52007      90.0000 
0.000168495      3.64018      90.3189 
0.000100493      2.81574      83.8807 
8.59969e-05      2.50830      94.5814 
-0.000201032      4.10683      118.185 
6.36829e-05      1.56315      106.338 
-8.74805e-05      2.10804      94.9008 
1.22818e-05      1.57042      83.4149 
-0.000612078      9.80096     -66.6776 
-0.00135839      7.59929     -47.0287 
-0.00101533      10.0942      79.9607 
0.000878214      11.9484      142.823 
-0.000287085      4.51751     -154.001 
0.00109191      6.44022      97.8554 
0.000689095      10.1292      123.564 
-0.00111025      12.3906      47.9432 
-7.27778e-05      8.17010      23.3651 
0.000510765      6.36454      57.7096 
0.000392768      9.76526      137.158 
-0.000252181      10.2096      68.5114 
0.000619126      4.59789      141.540 
0.000671061      9.83606      53.4343 
-0.000614241      12.7783     -50.0790 
-0.000387334      8.16208      23.2346 
-0.000481355      4.09906      149.177 
-0.000371519      10.2284      68.5530 
0.000420231      9.17917      25.2809 
-0.000251058      9.49796      147.381 
0.000720088      10.0102     -168.239 
-0.000362988      7.55851     -128.446 
-0.000353582      4.49931     -153.888 
-0.000182631      5.24600     -110.296 
0.000249174      3.06897      154.945 
-0.000185850      8.38603     -61.3572 
0.000403304      9.87373     -128.006 
-0.000299441      11.0216      140.301 
0.000237729      7.81800      141.751 
-0.000455130      8.93134      168.111 
-0.000182973      8.95677     -162.456 
-0.000403304      9.59735     -54.1587 
0.000345549      10.8033     -150.255 
0.000229457      8.70359      25.7388 
0.000229764      10.1145      128.094 
0.000119181      7.36515      112.178 
0.000137511      5.06979     -38.2744 
-0.000170099      3.04590      48.4555 
-0.000114049      9.81888     -66.7226 
0.000166047      6.52213      43.3823 
0.000277463      9.91704      51.3063 
-0.000274559      8.29371     -64.7310 
-0.000273807      10.8301      34.9211 
0.000218894      3.08665      155.098 
-0.000164701      3.89190      137.289 
-0.000272993      12.4945     -46.8812 
-0.000217095      9.48154      147.317 
-0.000161365      3.39609      50.4959 
-0.000323942      9.73488     -78.5064 
-0.000184205      8.93745     -162.417 
-0.000110410      9.45857     -74.1720 
0.000215289      9.33430      86.8064 
0.000305773      5.05390     -38.4167 
-0.000110878      6.41296     -34.5845 
-0.000162594      8.39576     -61.2359 
0.000160741      7.22794     -133.990 
-0.000162467      10.0349     -124.196 
-5.59989e-05      11.5653      48.7854 
-0.000162721      10.0274     -57.9560 
-0.000109278      11.0780      138.366 
0.000107904      10.5557      157.615 
-0.000160209      9.33542     -107.969 
-0.000159386      7.58697     -141.530 
0.000213308      2.54917     -160.285 
0.000304067      8.08106     -89.1487 
0.000607984      9.06048     -63.6620 
-0.000105777      11.9569     -138.391 
0.000105434      4.97240      103.252 
-0.000105892      11.0366      140.366 
-0.000105661      11.1398     -122.833 
0.000103457      8.51480     -40.2387 
-5.28780e-05      10.5697     -17.5101 
-5.27886e-05      10.6584     -130.205 
0.000102981      10.4144     -50.5317 
-5.23608e-05      11.0893     -145.507 
-0.000322201      11.8592      40.4861 
5.20706e-05      9.13976     -40.2079 
5.19280e-05      10.3917     -100.421 
-5.16293e-05      11.0931      138.436 
5.15692e-05      8.64236      21.8744 
-5.14997e-05      4.10055    -0.838824 
0.000101555      12.9421      44.0603 
5.09739e-05      9.06949     -63.5473 
5.07594e-05      6.43749      97.6767 
5.06998e-05      7.83392      141.842 
-5.06500e-05      10.1162      116.413 
-5.05241e-05      12.6494     -136.793 
5.04102e-05      6.07063      132.996 
-5.02617e-05      2.84368     -2.82843 
0.000480525      5.38901      78.4413 
0.000669518      8.50864      38.7024 
-0.000276252      6.69058     -38.4470 
0.000357673      13.3195     -130.556 
0.000167142      10.9232     -113.984 
-0.000196890      7.45939      153.226 
-0.000149832      7.39595      145.023 
-0.000682852      11.9982     -130.673 
0.000564952      7.28124     -89.0552 
0.000154637      4.24308     -134.240 
-0.000105977      5.57852      51.4004 
0.000243084      8.43748     -171.273 
-0.000385686      11.7937     -146.904 
0.000190762      5.78506     -37.9773 
0.000323756      6.23577      115.251 
-9.70274e-05      8.52429     -10.5453 
-5.18622e-05      1.01635      169.794 
0.000216266      9.08849      177.478 
9.28753e-05      10.0289     -68.9613 
9.86830e-05      11.3923     -131.440 
0.000186462      10.3210      121.287 
9.51037e-05      11.1357      60.1646 
0.000215296      10.9150     -113.886 
0.000294387      8.52019     -33.3192 
-0.000525596      7.95968      53.2749 
-4.96358e-05      10.9183      147.415 
0.000585387      10.5902      73.9961 
-4.93594e-05      3.82280      92.1036 
-9.63078e-05      3.59417      9.93037 
9.27455e-05      8.13230     -123.262 
4.89524e-05      8.49598      38.5958 
-0.000128803      7.09119      86.7667 
4.77340e-05      6.24412      115.413 
4.75781e-05      7.12471      141.040 
-0.000211386      10.1833      160.853 
-0.000130259      5.59071      51.2441 
-0.000543245      10.0406     -124.449 
-9.12834e-05      6.77473     -59.8765 
-0.000176023      12.9982     -39.5680 
-0.000247131      5.23414     -25.0918 
-4.61960e-05      11.1018      35.8366 
-0.000132251      10.6783     -129.831 
0.000646793      10.8853     -137.458 
0.000509503      6.33659      57.7666 
0.000246489      11.3616      55.4724 
-4.55458e-05      3.58402     -37.0690 
0.000200022      8.51124      38.5139 
8.57565e-05      10.8438     -117.936 
-4.53729e-05      7.78757     -140.631 
0.000275179      9.04382     -126.820 
0.000265337      11.4057     -131.517 
-0.000255475      6.63012     -17.0117 
-8.66062e-05      9.63850     -120.556 
-0.000143803      11.0854      35.8979 
-4.36732e-05      10.4753     -20.6848 
-0.000231195      9.27384      51.1288 
0.000122543      12.4669      141.972 
0.000368449      10.3619     -155.118 
-4.26719e-05      3.57422      9.98638 
-8.15231e-05      7.75953     -140.647 
0.000187540      8.46272      54.6188 
0.000191043      10.3559     -69.1854 
-4.21421e-05      10.8241      34.6871 
-8.17579e-05      11.0740      35.8161 
8.10659e-05      11.3731      55.3883 
0.000177899      12.0978      48.3517 
4.10280e-05      1.70833     -25.6646 
0.000282337      10.3105      121.191 
-0.000217799      3.46009     -90.3355 
-7.05950e-05      9.06698      94.4285 
0.000292941      8.06175     -50.9387 
-4.04148e-05      3.54285      30.9055 
-0.000345335      8.80652     -160.083 
-4.01485e-05      10.4822     -20.7846 
-0.000547674      7.90561      55.3038 
-0.000174600      9.64882     -120.660 
3.96676e-05      8.19169     -162.669 
0.000958828      11.5257     -119.412 
-0.000161675      10.8147      62.5797 
-0.000321996      12.7399     -39.7140 
-0.000922956      10.2324      67.5970 
-0.000199966      10.6628     -129.901 
-0.000174442      12.9826     -39.6249 
0.000303008      4.85075      21.2698 
0.000430705      12.7351     -38.1130 
0.000409152      10.5125     -112.956 
-0.000139997      11.7442     -143.169 
-0.000169125      7.58728     -140.562 
-0.000142353      8.85685     -62.2756 
-7.17627e-05      9.06544      94.3009 
-0.000103888      9.50684     -54.5060 
0.000138075      8.30013      100.554 
0.000316981      8.18568     -162.804 
-3.76324e-05      11.0062      43.5248 
-3.75018e-05      11.0582      35.8753 
-0.000201089      10.6386      67.0991 
-7.09353e-05      9.53580      56.8126 
-0.000295907      3.68382      142.948 
3.69293e-05      6.89145     -42.9968 
6.96248e-05      10.1517      128.361 
-9.87348e-05      5.90339      51.1866 
7.09808e-05      9.65440      113.698 
0.000135328      8.08579      116.120 
3.64232e-05      10.0216     -69.0694 
3.64228e-05      6.22715      115.083 
0.000255685      11.5008     -151.428 
-0.000104502      11.0204      43.4550 
0.000306264      11.4609     -59.9466 
3.58118e-05     0.724535      129.410 
0.000134880      12.1799     -136.398 
3.54414e-05      11.3443      148.189 
-0.000212198      9.34579      51.9523 
-0.000363625      10.5743      158.821 
-0.000129114      9.58120     -83.5290 
-0.000193212      11.3567      44.3575 
0.000100196      10.3353     -124.675 
-0.000237933      12.4569     -125.195 
3.44470e-05      10.2653     -68.0345 
-0.000513300      8.85352      168.005 
-6.67778e-05      8.70183     -94.0846 
0.000217328      12.4545      142.045 
9.68494e-05      11.0875     -45.0000 
-0.000233328      11.0554      145.763 
0.000313189      12.2723     -47.4433 
-0.000212870      9.63952     -162.242 
9.50902e-05      8.66778      25.8530 
6.40007e-05      7.64071      85.7985 
3.29819e-05      11.5179     -151.475 
3.28688e-05      10.3792     -100.662 
-0.000124889      11.0351      43.3826 
0.000798651      9.75169      83.0478 
0.000122267      7.85457      33.3667 
-0.000149830      9.86036      70.9404 
0.000301409      10.4099      69.6513 
-0.000142410      10.2024      160.891 
3.22315e-05      7.51668     -42.5199 
0.000395823      8.03383     -50.9633 
-9.02746e-05      9.28903      51.2043 
0.000422271      8.40785      4.63794 
-3.15669e-05      6.62444     -16.8503 
8.90612e-05      10.8965     -113.930 
3.15186e-05      4.26797     -127.190 
-3.13770e-05      12.4686     -125.271 
-0.000255317      11.9720     -138.456 
-0.000167583      8.70330     -94.2176 
-3.10214e-05      10.6949     -146.130 
3.09157e-05      10.9015     -65.5025 
3.08072e-05      8.03996     -137.417 
-3.07338e-05      7.79466      140.101 
6.07186e-05      14.1140     -134.541 
3.06127e-05      10.3238     -124.583 
3.04124e-05      12.1653     -136.332 
3.04670e-05      7.86573      33.4900 
-3.03995e-05      8.25227      120.915 
-0.000116880      9.50009      90.3621 
0.000113026      8.45100      54.7308 
0.000190661      3.91636     -95.2769 
3.01669e-05      7.28294     -105.447 
0.000208358      10.9096     -65.4093 
-8.37701e-05      6.60505     -16.9013 
-8.36063e-05      3.46003     -90.0000 
-0.000440300      10.6710      40.2853 
5.66569e-05      10.1391      128.271 
-0.000111087      9.16489      88.1232 
2.96151e-05      5.16254     -84.6623 
0.000722539      14.1282     -134.600 
-0.000203485      10.6781     -146.070 
0.000134292      8.91165     -96.1825 
5.58246e-05      7.54479     -42.5251 
0.000181370      11.5943     -141.232 
8.06465e-05      7.23145      129.501 
-8.48726e-05      8.89890     -51.6631 
8.42435e-05      12.4385      141.988 
0.000283573      9.74926      83.1660 
5.58181e-05      10.0840     -3.98112 
0.000134855      11.7681     -32.3686 
-0.000138099      11.0493      43.3131 
0.000235592      5.14051     -84.8661 
5.67973e-05      10.2726      121.060 
0.000136980      12.6546      138.652 
-0.000527362      10.2646      81.8213 
0.000268842      11.8804      45.8189 
0.000378293      7.27777     -105.299 
-2.87292e-05      3.10057     -123.690 
-2.85672e-05      5.05120      83.6372 
-5.48398e-05      7.89728      140.339 
-2.85836e-05      11.0696      35.9571 
-0.000132685      11.3712      44.2861 
-2.83063e-05      5.35073      71.0213 
-0.000105351      11.0954     -131.419 
2.82775e-05      12.1518     -136.399 
-0.000223347      11.1562     -122.778 
-2.82987e-05      8.26270      121.035 
5.38017e-05      7.14544      46.9277 
5.46178e-05      8.05489     -137.514 
-5.48590e-05      8.78818     -160.039 
5.44920e-05      10.3077     -124.645 
7.99100e-05      10.5958      73.8907 
-7.78831e-05      12.9802     -137.434 
-5.22378e-05      9.57902     -83.6449 
8.15259e-05      11.4512      119.969 
5.27516e-05      10.4237      70.7316 
2.78228e-05      9.85297      95.9407 
-5.44255e-05      8.23489      120.987 
-0.000157231      9.42694      140.941 
-0.000130805      10.0521     -124.544 
0.000176060      7.87150      33.2856 
0.000127820      10.7810     -50.3430 
-5.37658e-05      9.50024      90.4842 
-0.000223216      7.14630      153.220 
5.25225e-05      10.1539      73.9947 
-0.000325364      8.53980     -10.3877 
0.000102083      10.2250      120.828 
5.07261e-05      11.4186     -131.590 
2.72032e-05      10.8189      65.1893 
0.000125639      9.56533      94.1974 
-5.26541e-05      8.13533     -101.201 
-7.84337e-05      3.70001      143.137 
2.69460e-05      10.2719     -164.531 
2.69214e-05      10.3114      41.8555 
-2.67812e-05      9.09819     -86.3447 
-5.29695e-05      11.8575      40.6217 
7.82206e-05      12.3766     -44.0174 
0.000125475      10.8107      65.2832 
-2.64986e-05      12.0663      122.822 
0.000101264      10.1656     -32.2201 
0.000282314      8.08078     -89.2924 
-0.000164968      9.46449      147.251 
0.000250888      12.1377     -136.335 
0.000122915      9.15524     -40.1261 
-0.000207842      9.63150      61.2025 
-5.09403e-05      2.88223      15.2918 
-0.000123553      9.43376     -74.2524 
-4.99323e-05      8.27306      86.8127 
-0.000340037      9.27933     -103.587 
0.000123548      11.4778      120.005 
2.59943e-05      10.4120      146.675 
-5.08372e-05      3.36135      56.3986 
0.000562504      9.61378     -86.8993 
0.000125619      10.7298      21.5447 
-9.96658e-05      11.5287      147.468 
-0.000168486      8.24534      121.108 
0.000311980      11.6841      60.0100 
-0.000173581      10.5169      106.574 
-0.000121701      11.8443      40.5474 
-2.56534e-05      9.65196     -162.392 
-0.000120904      12.0369     -132.036 
-4.91984e-05      6.19882      85.5566 
-7.29745e-05      11.2176      124.541 
-2.54064e-05      9.53449     -54.4749 
-0.000312214      8.72244     -83.1519 
7.45205e-05      12.6698      138.712 
0.000121023      9.78662     -135.329 
