! Center RA: 12 21 31.69052,  Dec: +28 13 58.50011 (2000.0)
! Established model.
! Flux (Jy) Radius (mas)  Theta (deg)  Major FWHM (mas)  Axial ratio   Phi (deg) T \
! Freq (Hz)     SpecIndex
  0.134369      0.00000      0.00000 
 0.0438124    0.0202604      180.000 
 0.0214356    0.0202604      90.0000 
0.00139488    0.0397705      90.0000 
0.00326061    0.0446338      63.0042 
0.00299080    0.0633577      71.3505 
 0.0115424    0.0896014      63.6495 
 0.0171042    0.0286526     -135.000 
0.00377642    0.0446338     -153.004 
 0.0134165     0.107434      68.2729 
 0.0249316    0.0446338     -116.996 
0.00556348     0.302778      97.5477 
 0.0249434     0.101837      78.5245 
 0.0125857     0.282706      98.0871 
0.00630806     0.280627      94.1402 
0.00560053     0.121759      80.4216 
0.000535313     0.260423      94.4620 
0.00211096     0.220795      95.2649 
0.00127937     0.349279      103.290 
0.000471055     0.201375      95.7743 
0.00113172     0.240977      94.8229 
0.00165047     0.204262      101.227 
0.00254087     0.373757      105.487 
0.000234246     0.260423      85.5380 
0.000463256     0.240790      138.411 
0.000228344     0.240124      90.0000 
0.00109726     0.256296      141.419 
0.000217785     0.266484      76.9812 
0.000622317     0.271765      72.8159 
0.00443714     0.398226      107.547 
0.000414238     0.271820      143.984 
0.000203902     0.223431      100.253 
0.000202788     0.260826      147.453 
0.000395885     0.234065      110.062 
0.00209737     0.250509      151.362 
0.000198869     0.227911      105.272 
0.000565807     0.284207      140.679 
0.000719715     0.253192      71.5114 
0.000195265    0.0720098      56.4755 
0.000193191     0.161111      82.7757 
0.000699565     0.278155      68.9736 
0.00280642    0.0720098      33.5245 
0.000191633     0.250509      118.638 
0.00108859     0.141777      81.7841 
0.000374070     0.260038      112.569 
0.000185812     0.181229      83.5812 
0.000709172     0.268467      116.565 
0.00162349     0.260038      67.4310 
0.00315604    0.0720098     -123.524 
0.00122124     0.297458      137.658 
0.00150845     0.145849      74.1761 
0.000650108     0.164706      76.0271 
0.00111174     0.278118      120.301 
0.000165823     0.323277      68.1986 
0.000480355     0.241454      65.5855 
0.00163393     0.260038      157.431 
0.000162080    0.0633577      18.6495 
0.000160179     0.341468      69.4145 
0.00173168     0.417588      106.709 
0.00160379     0.300155      143.130 
0.000154549     0.349107      66.3001 
0.000860163     0.223834      63.5208 
0.000582086     0.367749      67.5690 
0.00142806     0.250509      61.3621 
0.00197420     0.295127      118.390 
0.000415075     0.404795      110.283 
0.00125614    0.0828082      14.1622 
0.00144930     0.126477      71.6725 
0.000269356     0.394056      66.0707 
0.000265524    0.0896014      26.3505 
0.000740498     0.402700      63.4349 
0.000638597     0.431906      103.360 
0.000845728     0.233573      59.0678 
0.00266319    0.0848966     -135.000 
0.000369672     0.411965      112.829 
0.00108148     0.288454      123.649 
0.000847845     0.446997      100.348 
0.000522706     0.394056      113.929 
0.000228312     0.438758      59.9270 
0.000355033     0.402700      116.565 
0.000580219     0.260826      57.4530 
0.000160269     0.141777      98.2159 
0.000753440     0.140322      90.0000 
0.00120412     0.354273      73.6379 
0.000156445     0.334882      72.6613 
0.000736141     0.243395      99.4042 
0.000739950     0.121759      99.5784 
0.000147231     0.172194      144.578 
0.000287194     0.178866      153.327 
0.00131810     0.373757      74.5128 
0.000140207     0.247514      75.9638 
0.00176810     0.197181      155.971 
0.00110082     0.120062      90.0000 
0.000133526     0.247514      104.036 
0.000131056     0.253192      108.489 
0.000739131     0.278155      111.026 
0.000208466     0.379669      71.5651 
0.000125048     0.234065      69.9384 
0.000354430     0.398226      72.4528 
0.000680953     0.404795      69.7174 
0.000445293     0.286050      114.817 
0.00102687     0.215843      158.162 
0.000326823    0.0896014     -153.650 
0.00176039     0.100252     -143.216 
0.000778688     0.268467      63.4349 
0.00179820     0.447333      63.3920 
0.000208184     0.369026      77.4333 
9.97582e-05     0.362375      83.6991 
0.000191883     0.380236      93.0544 
0.000274801     0.381773      95.9795 
0.000179835     0.384412      98.9843 
0.000399242     0.404436      98.5360 
8.37605e-05     0.188432      148.019 
0.000738390     0.284207      129.321 
0.000508522     0.483985      60.2551 
0.000796828     0.205897      151.006 
7.83946e-05     0.411965      67.1714 
0.000559635     0.412159      119.085 
0.000268267     0.386554      68.7149 
0.000516057     0.424483      98.1301 
7.19650e-05    0.0600310      0.00000 
0.000470162     0.244605      54.9936 
0.000652733    0.0802914      0.00000 
0.000796806     0.421988      121.401 
0.000193676     0.466942      99.9013 
0.000372087     0.283342      135.000 
6.46213e-05     0.216445      56.3099 
0.000341672     0.510656      59.4405 
0.000300626     0.490508      101.740 
0.000290390     0.134233      63.4349 
0.000172467     0.322315      60.2717 
0.000649771     0.228306      52.0755 
0.00124810    0.0998015      0.00000 
0.00136092     0.199903      53.0871 
5.88030e-05     0.509625      101.293 
0.000952586     0.449253      122.310 
0.000113143     0.513977      103.509 
0.000671347     0.459977      124.364 
0.000369093     0.538618      105.101 
5.49405e-05     0.297458      132.342 
0.000834760     0.128090     -141.183 
5.10094e-05     0.350038      59.0362 
0.000412610     0.212689      48.7190 
0.000373229     0.563425      106.480 
0.000578185     0.172194      54.5784 
0.000738103     0.538451      58.6802 
0.000227348     0.332828      57.2415 
0.00101622     0.841065      118.394 
0.000522871     0.427819      100.817 
0.000652739     0.312731      140.159 
0.000204853     0.407936      101.351 
8.46677e-05     0.594563      109.693 
0.000750486     0.120062      0.00000 
0.000559863     0.601418      111.443 
0.000715369     0.144435     -146.227 
0.000712884     0.868561      118.934 
0.000281825     0.344213      54.4042 
0.000635360      1.05749      105.348 
0.00226340      2.33600      111.067 
8.42472e-05     0.144435      56.2274 
0.000368365      1.04433      106.703 
0.000236578      1.69542      107.144 
0.000305011     0.895107      119.423 
0.000984477     0.141777     -8.21587 
0.000832732     0.528203      60.5580 
6.40143e-05     0.950432      120.351 
0.000247275     0.609116      113.217 
0.000656678      1.67607      107.348 
0.000328980     0.977152      120.760 
3.25904e-05      1.35540      111.636 
0.000187669      1.37425      111.325 
0.000122574     0.161670     -150.222 
9.20213e-05      1.05010      107.723 
6.06175e-05     0.569504      108.435 
0.000564306     0.161670      60.2221 
0.000319487      1.29890      99.7453 
0.000449780     0.355922      51.8496 
5.96391e-05      1.39984      111.807 
0.000949118     0.156126     -140.265 
0.000115360      1.41867      111.503 
0.000141379     0.576231      110.346 
0.000473092      1.29574      98.8950 
2.86160e-05      1.03728      109.130 
8.36886e-05      1.41137      110.738 
2.78627e-05     0.617068      114.882 
0.000439134     0.967319      119.767 
0.000681143      1.43034      110.451 
0.000180769     0.653108      117.360 
0.000375410      1.07195      104.017 
7.80912e-05      1.02511      110.571 
0.000696493      1.65745      107.549 
0.000464911      1.10635      139.373 
0.000446033     0.544027      107.085 
0.00221356      4.90199      116.149 
0.00178767      1.12180      140.047 
0.000101415      2.15059      108.429 
2.54759e-05      3.76288      121.753 
0.000318153     0.438758      120.073 
0.00119363      3.75225      121.490 
0.00141298     0.885686      118.324 
0.000373173     0.423858      109.333 
0.000576116     0.161111     -7.22432 
0.000811884      2.15708      108.939 
0.000649017     0.662301      118.859 
9.33504e-05      2.02487      110.228 
0.000257920      1.44202      109.453 
0.000126285      1.07704      105.063 
0.000350354      2.03196      110.764 
2.26274e-05      1.03212      111.585 
0.000874689      1.27573      99.0357 
0.000175355      1.01401      111.990 
0.000216703      1.63815      107.763 
0.000279501      2.34336      111.529 
0.000380985     0.957421      118.714 
0.000276068     0.172194     -144.578 
0.00197116     0.184432     -12.4530 
7.90898e-05      1.78137      118.865 
2.06562e-05      1.62304      112.451 
9.71873e-05      1.38175      112.108 
0.000320234      1.61569      111.811 
3.93780e-05      4.97108      109.020 
0.000333675      1.65168      106.904 
0.000114211     0.545937      61.6032 
0.000324728     0.340220      49.7414 
0.000464419      1.44864      110.181 
0.000696602      4.99024      108.944 
0.000133061     0.429314      62.1808 
0.000301389     0.327950      142.343 
0.000121363      1.39244      102.448 
0.000151163     0.519084      105.684 
0.000128657      2.36222      111.349 
1.87212e-05      1.73346      106.756 
0.000860913      3.74389      111.629 
0.000134781      1.09162      103.759 
0.000119381     0.197181     -155.971 
6.86316e-05      1.38950      112.882 
0.000334744     0.554452      64.3366 
0.000346208      2.06522      111.597 
0.000223194      2.36967      111.805 
0.000486824     0.429314      117.819 
0.000104623      1.79124      119.432 
0.000267893      1.72794      106.137 
1.72246e-05      1.43754      111.207 
3.28411e-05     0.995250      112.427 
0.000189272     0.550320      109.102 
0.000142681      2.37699      112.241 
3.12892e-05     0.297458      47.6583 
3.15580e-05      2.34104      109.980 
0.000102790      2.17554      108.772 
0.000378286      1.00315      113.497 
0.00120155      1.63230      107.110 
3.10245e-05      1.60827      111.141 
4.43828e-05      1.40750      112.573 
0.000155928     0.912809      118.798 
9.86254e-05      1.38821      101.632 
0.000393504      1.59689      112.081 
0.000113730      1.08715      102.760 
7.32991e-05      2.33419      109.513 
7.23864e-05     0.215843     -158.162 
7.45227e-05      2.38473      112.692 
0.000223931     0.564587      67.0814 
0.000171182     0.325575      47.5220 
0.000137147     0.930615      118.197 
0.000220099      2.41825      113.383 
0.000895299      3.74171      121.226 
0.000711567     0.672314      120.372 
-0.00144866      3.75537      124.366 
0.000321191      2.16374      109.447 
1.39074e-05      2.32775      109.060 
4.03426e-05     0.300155      180.000 
0.000209663      1.45575      110.929 
0.000444047      1.25899      100.057 
0.000127631      2.34620      108.904 
0.000269789      2.07248      112.098 
2.67934e-05      1.12180      129.953 
0.000100847     0.141141     -135.000 
0.000122516      1.13443      130.708 
2.58758e-05      2.44491      113.630 
0.000261229     0.344213      144.404 
2.57653e-05      1.40417      100.655 
0.000148634     0.319665      180.000 
0.000285611      4.77639      116.348 
0.000385998      2.45310      114.064 
6.20531e-05      1.40070      99.8711 
0.000324956     0.524694      107.735 
7.02021e-05      1.10618      102.537 
8.17392e-05      1.39737      99.0526 
0.00102604      3.72507      111.744 
0.000212989      2.33971      108.435 
0.000130224     0.134233     -116.565 
0.000319928     0.572781      65.2144 
5.35546e-05      2.18215      109.276 
0.000257437      1.14775      131.475 
0.000118255      1.39443      98.2609 
0.000907302     0.227911     -15.2717 
0.000141471      5.00940      108.869 
7.12251e-05     0.266484     -166.981 
0.000129760      1.47469      110.648 
0.000439165      1.24353      101.134 
5.68934e-05     0.903572      117.714 
0.000277747      2.47957      114.285 
0.00128473      1.39166      97.4354 
0.000100069      2.03896      111.277 
0.000280245      1.57124      111.664 
0.000293810      2.17031      109.932 
9.93689e-05     0.126477     -108.327 
4.54550e-05      5.02544      110.743 
0.000875648      2.46112      114.479 
0.000299827      2.33361      107.981 
0.000190607     0.320306     -176.373 
7.66629e-05      5.00289      108.650 
2.54717e-05     0.563176      62.5472 
8.97794e-06      1.10196      101.509 
2.59278e-05      1.74741      105.952 
0.000187897     0.360880      146.277 
0.000141961      1.48196      111.381 
0.000354470      1.16076      132.196 
2.30388e-05     0.420241      115.375 
0.000170536     0.302778     -172.452 
0.000237443      2.04640      111.805 
0.000170536      5.00720      110.822 
0.000352010     0.581230      63.4680 
0.000235587     0.141777     -98.2159 
4.68800e-05      1.75559      104.505 
0.000250276      3.72504      121.381 
0.000274058      4.78542      116.565 
0.000102405      5.02138      108.578 
0.000623512      1.23978      100.215 
7.35121e-06      1.76077      105.144 
0.000242257      1.77521      104.342 
0.000189037     0.368782      49.3734 
0.000225656     0.350038      149.036 
0.000147158      2.32744      107.506 
0.000219744      2.17730      110.434 
0.000521727      3.71492      121.125 
0.000284821      5.01520      108.367 
4.36788e-05      1.57883      112.348 
0.000127685     0.557279      111.071 
1.22815e-05     0.572799      60.7486 
4.28498e-05      1.09824      100.511 
3.15614e-05      1.76365      119.182 
0.000105358      1.48918      112.080 
3.05258e-05      1.01140      114.549 
0.000138046      2.35289      107.828 
1.25303e-05     0.209153     -16.6796 
0.000225533      4.98827      110.905 
0.000196117     0.140322     -90.0000 
0.000379894      1.17446      132.929 
4.84612e-05     0.377263      147.922 
9.39220e-06      1.09472      99.4688 
0.000238970     0.590559      61.7091 
0.000317224      1.12468      141.501 
9.28444e-06     0.531217      109.817 
0.000186110      2.34677      107.357 
0.000172296      4.79451      116.782 
9.74648e-05      5.03443      108.295 
8.78866e-06     0.322129     -172.908 
-0.000403677     0.950648      98.4883 
0.000115237      2.18419      110.913 
0.000114374     0.465536      64.5089 
7.14137e-05     0.340529     -176.589 
2.94508e-05      1.94236      118.951 
0.000150798      1.23647      99.3251 
6.34823e-05      2.44270      114.676 
0.000209861      3.70776      121.544 
1.10277e-05      1.56387      110.974 
9.11420e-05      3.69876      111.568 
7.19652e-06     0.366905      150.604 
6.94566e-05      3.70854      119.745 
-0.000153261     0.868284      97.9480 
0.000134732     0.591236      113.962 
6.85270e-06      1.25573      99.1809 
6.48752e-05      1.55700      110.304 
0.000145550      1.25265      98.2660 
6.28922e-06      1.78034      104.973 
-0.000175109      1.28810      115.759 
3.68052e-05      2.19150      111.408 
-9.06642e-05     0.972963      99.4551 
-6.34082e-05     0.700075      59.0362 
3.02427e-06     0.384386      51.3402 
2.94699e-05      3.71840      121.811 
-5.77734e-06      2.00309      104.447 
0.000852952      10.9314      148.696 
-0.000327015      5.24385      160.393 
0.000619921      3.04139     -9.45767 
-0.000290834      3.65888      27.6792 
0.000671061      4.66818      54.0640 
-0.000572169      5.26294      160.467 
-0.000743319      7.11539     -109.197 
0.000781523      5.69590     -10.5209 
0.000280870      5.07220     -71.8465 
7.20441e-05      10.6413      23.4792 
0.000909627      10.6336      23.3828 
0.000328248      7.53247      93.3467 
0.000120709      3.02140     -9.52081 
0.00112225      4.88173     -66.5875 
-0.000324585      11.4154      41.8772 
0.000256492      11.8874     -54.5191 
-0.000537997      6.61545      20.8999 
-0.000239397      8.67688      27.4537 
0.000258707      10.4363     -77.2688 
0.000359454      10.1236     -123.315 
-0.000245525      3.67617      27.5379 
0.000129918      10.6494     -23.5792 
0.000410096      6.17238     -37.7601 
0.000702831      5.07832     -71.6373 
-0.000623671      9.10694     -102.816 
-0.000638219      13.8784     -133.423 
-0.000126732      10.8560      42.6834 
0.000360434      7.34346      69.0945 
0.000238344     0.921540      155.668 
-0.000304028      7.96653      155.687 
0.000288696      3.65689     -16.8546 
0.000178874      1.46963      165.027 
-6.22195e-05      8.76067     -34.9615 
-0.000341128      8.36680     -47.6171 
0.000662405     0.544027     -107.085 
-0.000179881      7.12208     -109.351 
0.000280006      7.39373      151.219 
0.000442840      9.68445     -36.3469 
0.000278112      10.6673     -23.5373 
0.000282993      4.41226     -22.3823 
0.000110104      5.86337     -5.08821 
0.000119030      10.4561     -77.2932 
-5.99630e-05      8.77729     -34.8857 
-0.000220556      11.4139      42.0155 
-0.000380207      3.27168     -4.90770 
0.000115971      7.12372      74.3622 
-0.000271441      6.12045      89.4380 
-0.000215723      9.35592     -22.2349 
0.000325991      10.2941      103.253 
-0.000167151      3.14946      118.024 
-0.000108549      12.5387      51.9978 
0.000269697      2.23651     -47.1754 
0.000167711      9.50305     -140.379 
0.000317704      10.4319     -77.3773 
-0.000320464      9.84433      30.5233 
-5.66693e-05      8.79391     -34.8102 
-0.000317545      7.94807      155.627 
0.000211188      11.8709     -54.4623 
0.000105574      3.91485      164.901 
5.58333e-05      8.00111      91.0049 
0.000263751      7.12901      74.2112 
-0.000108937      12.5512      51.9249 
0.000106912      7.55159      93.1899 
0.000158204      5.18782      162.959 
0.000155057      1.48436      165.957 
-5.41271e-05      11.7329      34.5834 
-5.39137e-05      6.12068      89.2484 
-0.000104690      3.74604     -12.3296 
0.000155836      8.17525      157.262 
0.000102491      9.96959     -28.5172 
5.30981e-05      7.08248      163.764 
-5.28493e-05      7.46163      169.653 
0.000153047      9.48745     -140.301 
-0.000102189      8.84327     -34.5881 
0.000102587      9.46384     -121.608 
-0.000102261      6.90074      145.989 
-5.23395e-05      10.1221     -40.9961 
-0.000102253      3.15903      118.349 
-0.000152889      9.13120     -102.911 
0.000101495      7.07685      163.921 
-0.000100777      13.5832     -46.7886 
-5.15340e-05      2.51179      5.48577 
5.13940e-05      7.35044      68.9524 
-0.000100631      7.43808      169.778 
-5.08464e-05      11.9849      121.487 
-5.02894e-05      1.39677     -103.230 
-5.01863e-05      8.35315     -47.7197 
-9.90051e-05      14.1872      43.9135 
4.98263e-05     0.932329      157.274 
4.96758e-05      4.39422     -22.4791 
4.95876e-05      3.35156      44.2743 
4.94688e-05      10.1125     -123.220 
4.91422e-05      10.9592      148.661 
4.89666e-05      7.95821     -24.1797 
-0.000870366      10.9759     -25.8170 
-0.000231364      3.86254      2.08196 
-0.000409188      3.88211      1.77227 
-0.000360697      8.93183     -23.3515 
-0.000733499      9.54065     -119.791 
0.000535365      14.2153     -136.082 
0.000375216      10.2431     -163.088 
0.000729586      11.8361     -54.6988 
-0.000208563      3.04885     -162.038 
-9.49250e-05      11.6228     -51.2166 
-0.000185148      4.36823      65.6628 
-4.83537e-05      10.7267      18.7037 
0.000131660      12.5019     -50.4529 
-0.000294488      9.65893      55.2877 
-4.62018e-05      6.35206     -34.7414 
-4.61120e-05      9.10072     -166.788 
4.59938e-05      7.80505      6.17595 
-8.89004e-05      8.52328     -178.386 
-0.000129720      10.7141      18.8410 
8.83385e-05      10.7504     -140.208 
0.000277160      9.00815     -2.41575 
-8.62236e-05      9.40228      156.162 
-4.41041e-05      8.75583      99.3315 
-0.000323221      10.2122     -92.8050 
-4.37026e-05      6.11885     -80.7837 
-4.36730e-05      9.49111      156.136 
-0.000121957      10.1202      168.022 
-0.000160908      9.14480     -166.722 
0.000240031      6.02139     -27.9255 
0.000445459      11.7786      147.551 
0.000278457      6.98095     -82.4273 
