! Center RA: 12 21 31.69052,  Dec: +28 13 58.50011 (2000.0)
! Established model.
! Flux (Jy) Radius (mas)  Theta (deg)  Major FWHM (mas)  Axial ratio   Phi (deg) T \
! Freq (Hz)     SpecIndex
 0.0786857    0.0202604     -90.0000 
 0.0489873      0.00000      0.00000 
0.00201013    0.0600310      90.0000 
0.00378017    0.0633577      71.3505 
 0.0102920    0.0802914      90.0000 
0.00635799    0.0828082      75.8378 
 0.0215162    0.0397705     -90.0000 
 0.0319503     0.286260      102.105 
 0.0325038    0.0998015      90.0000 
0.00912875    0.0600310     -90.0000 
 0.0165588     0.412220      104.011 
 0.0102261    0.0446338     -63.0042 
 0.0135649     0.266484      103.019 
0.00989416    0.0633577     -71.3505 
0.00433890     0.121759      99.5784 
0.00349296     0.120062      90.0000 
0.00889588     0.427819      100.817 
0.00180856     0.271765      107.184 
0.00159806     0.431906      103.360 
0.00509102     0.247514      104.036 
0.00211511    0.0562440     -45.0000 
0.000815291     0.407936      101.351 
0.00123438    0.0286526     -45.0000 
0.00303909     0.164706      103.973 
0.00325095    0.0446338     -26.9958 
0.00504346     0.141777      98.2159 
0.000607278     0.481892      94.7340 
0.00118213     0.501338      94.5500 
0.00113030     0.520413      92.2312 
0.000323507    0.0720098      56.4755 
0.000320576     0.398226      107.547 
0.00123089     0.101837      78.5245 
0.00274340     0.373757      105.487 
0.00306876     0.262662      98.7088 
0.00242775     0.392593      104.727 
0.00411215    0.0896014      63.6495 
0.00182373     0.521537      94.3734 
0.00200389     0.243395      99.4042 
0.00137617     0.541740      94.2100 
0.00405514     0.687137      98.3513 
0.00230721     0.710331      99.7310 
0.00233568    0.0848966      45.0000 
0.00148228     0.463888      97.4354 
0.000808590     0.561200      94.0638 
0.000632343     0.707189      98.1129 
0.00106455     0.730308      99.4623 
0.00135439     0.603304      95.7106 
0.00373020     0.583147      95.9087 
0.000786866     0.483985      97.1250 
0.000703235     0.749560      99.2171 
0.000585327     0.282706      98.0871 
0.000269597     0.769565      98.9755 
0.000391115     0.792179      100.203 
0.00246098     0.184432      102.453 
0.000498612     0.812127      99.9497 
0.000632667     0.645096      97.1498 
0.000268662     0.503350      96.8496 
0.000240028     0.815725      101.300 
0.000633388     0.280627      94.1402 
0.00164047    0.0720098     -56.4755 
0.00163446     0.835602      101.027 
0.000401901     0.562998      96.1209 
0.000490058     0.461703      94.9415 
0.00220814    0.0896014      26.3505 
0.000606110     0.441522      95.1680 
0.000594530     0.379669      108.435 
0.00212449    0.0802914     -90.0000 
0.00239057     0.858779      102.105 
0.000267552     0.420705      92.7603 
0.000665718     0.386554      111.285 
0.000686619    0.0828082     -75.8378 
8.92986e-05     0.300838      86.1384 
0.00122971     0.440193      92.6380 
8.70953e-05     0.279894      90.0000 
0.000388906     0.302778      82.4523 
0.000298945     0.107434     -21.7271 
0.00139096     0.878599      101.828 
0.000679477     0.394056      113.929 
0.000554180     0.306099      78.6901 
6.91212e-05     0.260423      94.4620 
0.00106551     0.126477     -18.3275 
6.35508e-05     0.913801      100.073 
0.000268106     0.933756      99.8559 
0.000298802     0.957327      100.843 
0.000108452     0.420241      115.375 
6.10434e-05    0.0828082     -104.162 
0.000119455     0.460433      92.5220 
0.000927913     0.402700      116.565 
0.000772937     0.101837     -101.476 
0.000688996     0.863255      103.420 
0.000511497     0.439727      90.0000 
0.000546649     0.976496      100.628 
0.000696851     0.844290      103.727 
0.000142511      1.00028      101.554 
0.000853650     0.100252      36.7841 
0.000287844     0.420705      87.2397 
0.000477009      1.02868      103.499 
0.000408449     0.107434      21.7271 
0.000431286     0.145849     -15.8239 
0.000587334     0.310708      75.0240 
0.000348242      1.05749      105.348 
0.00139607     0.107434     -111.727 
0.000141890     0.704700      96.5423 
0.000201606     0.601626      93.7903 
0.000444183      1.08805      107.085 
0.000281366     0.152624     -23.1616 
0.000291271     0.621094      93.6713 
8.86135e-05     0.702680      94.9008 
0.000412940     0.523472      96.5851 
4.33618e-05      1.09418      108.099 
0.000760702     0.429314      117.819 
0.000124645     0.701240      93.2513 
0.000165846      1.11429      111.035 
0.000757199     0.170734     -20.5855 
0.000391984     0.422095      84.5935 
0.000217052     0.953723      99.6476 
3.99928e-05     0.641314      93.5554 
0.000191202      1.12172      112.001 
0.000259559     0.700404      91.6576 
0.000250779     0.412159      119.085 
0.000286379     0.849131      105.006 
7.66611e-05      1.08248      106.098 
7.33206e-05     0.747714      105.543 
0.000412790      1.05231      104.284 
0.000338876      1.20887      106.331 
0.000106380      1.12917      112.919 
0.000794575     0.116465     -121.027 
0.000139650     0.700111      90.0000 
0.000195176      1.11054      113.326 
9.82351e-05     0.753177      106.973 
6.68347e-05     0.640401      91.8130 
9.59998e-05     0.874671      100.529 
3.26284e-05     0.910591      98.8646 
3.23330e-05     0.720372      90.0000 
3.20426e-05     0.620151      91.8722 
6.28103e-05     0.640080      90.0000 
0.000214540     0.189835     -18.4349 
0.000159481     0.509625      101.293 
0.000444214     0.526180      98.7772 
5.18250e-05     0.845593      96.7782 
0.000482457     0.848223      98.1373 
0.000268493     0.506166      99.1272 
0.000667735     0.680152      88.2930 
0.000711638     0.868284      97.9480 
4.20036e-05     0.349279      76.7101 
0.000273885     0.679851      90.0000 
4.10657e-05     0.354273      73.6379 
0.000116109     0.438632      114.241 
0.000102512     0.227911      105.272 
7.59391e-05     0.373757      74.5128 
0.000317557     0.891319      99.0579 
3.66977e-05      1.04767      103.250 
0.000308411      1.19830      104.506 
0.000168357     0.791053      110.721 
0.000103947     0.379669      71.5651 
0.000240945     0.116465     -31.0271 
0.000182015     0.398226      72.4528 
0.000154827     0.134233     -26.5651 
0.000473148      1.03341      104.551 
0.000507355      1.22288      105.153 
3.14752e-05      1.21792      104.267 
0.000308765     0.438758      120.073 
0.000117637     0.780402      112.620 
0.000258429     0.100252      53.2159 
0.000189545      1.03869      105.633 
2.87480e-05     0.412220      75.9891 
0.000548653     0.661537      86.5534 
0.000175171     0.107434      68.2729 
0.000131163     0.417588      73.2909 
0.000245004     0.788112      113.929 
0.000179400      1.11872      114.279 
2.67741e-05     0.209153      106.680 
2.58473e-05     0.888355      97.7673 
0.000162835     0.865715      96.6199 
0.000111176     0.189835      108.435 
0.000207332     0.449253      122.310 
9.54232e-05     0.431906      76.6398 
7.25527e-05      1.24172      104.918 
2.38450e-05     0.377263      57.9221 
9.18931e-05      1.12720      115.217 
0.000391646      1.24709      105.818 
0.000100926     0.681013      86.6521 
4.54656e-05     0.387976      55.4801 
0.000126100     0.446997      79.6521 
0.000124479      1.15388      115.665 
6.34454e-05     0.384386      51.3402 
0.000232705     0.796545      115.261 
5.80604e-05      1.01919      105.940 
2.09808e-05     0.529508      100.864 
0.000119164     0.459977      124.364 
0.000184410     0.863684      95.3341 
0.000164622     0.396866      49.1402 
1.94131e-05     0.519084      105.684 
0.000140653      1.16280      116.565 
0.000201453     0.450910      77.2126 
5.55839e-05      1.25276      106.709 
3.68318e-05     0.481580      131.589 
0.000228642     0.209153     -16.6796 
3.47859e-05     0.170734      110.586 
0.000649426      1.43162      118.352 
5.12329e-05     0.456404      118.798 
0.000315529     0.509625      138.163 
9.97582e-05      1.27784      107.286 
0.000271943     0.642889      84.6421 
1.74387e-05     0.506146      108.408 
1.74055e-05      1.02494      107.029 
9.67161e-05      1.27218      106.447 
6.39772e-05      1.01816      109.503 
0.000448568     0.128090     -128.817 
4.75778e-05      1.13565      116.108 
0.000141458     0.700404      88.3424 
6.00035e-05     0.465536      115.491 
4.73413e-05     0.410407      47.0005 
3.11537e-05      1.23684      104.045 
0.000111427     0.197181      114.029 
8.20131e-05     0.883858      95.2120 
0.000191441     0.395830      45.0000 
8.45031e-05      1.38775      105.043 
4.34787e-05      1.23208      103.131 
0.000197098     0.483220      114.495 
1.46702e-05      1.02511      110.571 
0.000223485     0.455823      74.7283 
0.000113268     0.805400      116.565 
5.46779e-05     0.227911     -15.2717 
1.40658e-05     0.943561      111.116 
2.69886e-05      1.22764      102.210 
0.000222312     0.474259      117.619 
0.000111609      1.17200      117.451 
5.28140e-05     0.924690      111.568 
1.34948e-05      1.22366      101.317 
0.000201173      1.06303      73.5990 
6.34607e-05     0.234065     -20.0616 
0.000285672      1.40660      104.837 
4.90060e-05      1.21985      100.384 
9.59325e-05     0.913675      113.217 
9.83575e-05     0.622720      84.4680 
8.91987e-05     0.932329      112.726 
0.000267459     0.253192     -18.4886 
9.26142e-05     0.882249      93.9016 
3.35940e-05      1.21648      99.4798 
0.000449068     0.141141     -135.000 
5.26178e-05     0.512006      141.366 
0.000193532     0.410407      42.9995 
5.99283e-05      1.21331      98.5360 
0.000156815     0.461573      72.3015 
0.000227674      1.06870      72.5956 
6.67716e-05     0.814312      117.793 
0.000143935     0.605655      82.3819 
0.000238931     0.527985      142.739 
3.04257e-05     0.113549      45.0000 
0.000377620      1.44135      119.060 
5.93084e-05     0.903799      114.842 
9.19196e-06     0.322129      97.0919 
8.49466e-05      1.21047      97.5876 
0.000154380      1.02414      102.397 
0.000124812      1.11162      81.7332 
5.85401e-05     0.977233      137.490 
8.47553e-06     0.921540      114.332 
0.000374740      1.69306      128.775 
8.99068e-05     0.178866      116.673 
3.41123e-05      1.18112      118.291 
0.000133842      1.28401      108.149 
1.59746e-05      1.41383      118.742 
0.000336496     0.991703      138.251 
0.000138915     0.518891      152.434 
4.59538e-05     0.876255      117.158 
7.54051e-06     0.475398      75.3715 
0.000262838     0.271765     -17.1841 
5.56775e-05     0.987971      111.381 
0.000211611     0.480914      73.0353 
0.000130511      1.40155      104.036 
8.45766e-05     0.227911     -164.728 
2.36610e-05      1.20805      96.6703 
6.03368e-05      1.07494      71.5651 
5.83432e-05     0.796445      118.473 
4.16940e-05     0.894329      116.565 
2.86818e-05     0.243395     -170.596 
9.66898e-05      1.08805      72.9147 
5.50312e-06      1.00686      110.961 
9.26891e-05      1.22817      96.5605 
8.38793e-05     0.381773      42.8494 
8.08506e-06      1.42368      119.456 
8.79936e-05     0.528183      155.401 
0.000103845     0.459987      0.00000 
2.06329e-05     0.501727      113.536 
7.47881e-06     0.116465      31.0271 
6.09197e-05      1.09418      71.9005 
1.73722e-05     0.467874      70.0247 
3.96594e-05      1.54497      111.243 
1.60885e-05     0.885686      118.324 
9.31985e-06      1.39677      103.230 
3.26443e-06     0.262662     -171.291 
1.23369e-05     0.247514     -165.964 
5.95149e-06      1.08152      70.5467 
-2.91241e-06     0.493986     -21.3812 
0.000474053      11.0304     -25.4511 
-0.000457295      4.26785      93.4877 
-0.000188267      6.49695     -23.0144 
-0.000417253      9.80999     -48.9699 
0.000300423      10.3222     -119.991 
0.000368723      9.55889      173.631 
-0.000209693      6.47108     -22.9168 
0.000290790      7.49833      24.9237 
-0.000264978      11.0108     -65.7616 
0.000159409      6.31147     -59.5386 
0.000181755      10.6511     -70.8170 
0.000202327      12.6208     -36.2363 
-0.000228143      11.6496      59.9123 
0.000176171      10.5876      71.1528 
5.49859e-05      4.42939     -118.306 
0.000103466      5.92480      145.448 
-0.000198299      5.25417     -9.64393 
-0.000176713      7.14032      23.2618 
0.000148272      7.57804      117.852 
-0.000192680      10.1799     -81.1848 
0.000124545      9.03036      141.837 
0.000123110      9.22846     -138.953 
7.37409e-05      4.99386     -6.67010 
0.000146919      8.75708      20.1756 
-0.000145745      9.56025     -81.7007 
0.000215641      4.43868     -118.528 
-5.03895e-05      10.2031     -81.0898 
2.63136e-05      1.80869     -125.101 
0.000122979      9.93529      57.0781 
0.000144820      9.17393      20.0179 
-0.000120726      9.86848      19.5372 
0.000167945      6.76206      153.662 
-7.44240e-05      9.23425      18.0404 
-5.04140e-05      9.25845      33.2779 
-0.000143878      6.77345      140.151 
-9.81824e-05      9.86710     -5.58182 
-7.40047e-05      6.81375     -84.2737 
-0.000120962      2.90491     -7.51053 
0.000166793      10.4139      136.869 
0.000212216      9.19340      134.296 
-0.000118703      9.65119     -2.73182 
-0.000119140      8.17135     -50.6606 
0.000141919      8.55255      143.559 
0.000118150      3.44847     -69.9839 
9.44976e-05      1.79277     -125.460 
4.90113e-05      5.87958     -76.6288 
-0.000116484      8.94229      106.367 
-7.18629e-05      4.54810      39.2887 
0.000140315      4.52125     -99.4185 
-0.000139564      3.31980      83.7714 
-0.000115407      5.75740     -43.7326 
-9.30007e-05      9.80791      39.2061 
-6.93554e-05      7.59883     -158.703 
-4.77731e-05      7.24205     -6.18022 
-2.41853e-05      1.44407     -36.5483 
-6.99535e-05      5.71286      36.0285 
4.61320e-05      4.99394     -59.4275 
-4.62748e-05      3.91059      123.535 
-0.000113205      5.77557      150.774 
4.58323e-05      5.89725      145.503 
-6.79284e-05      7.64293     -69.9496 
-2.34047e-05      2.98985      145.357 
-4.59077e-05      11.8893     -129.607 
-4.55811e-05      6.25109      97.3519 
8.98694e-05      12.4132     -144.773 
-4.47005e-05      10.1248     -1.80928 
-2.28988e-05      6.84215     -91.5083 
-4.44838e-05      9.21498      18.0794 
6.66657e-05      8.45341      64.3471 
-4.48492e-05      12.8419     -44.3679 
-6.65903e-05      7.14835      23.4110 
-4.45371e-05      13.1791     -137.520 
2.25094e-05      6.97577     -140.469 
2.23998e-05      8.12263     -136.995 
-4.40398e-05      5.13507     -62.1393 
2.23630e-05      3.40710     -86.3001 
-2.22821e-05      5.59709      6.56668 
4.37604e-05      10.3552     -136.409 
-2.22305e-05      9.88652     -5.57083 
-2.22032e-05      5.66130      137.294 
-2.21032e-05      9.75661      60.1223 
2.20202e-05      4.62987     -140.254 
-2.18942e-05      9.10663      4.40921 
-2.18898e-05      9.27477      33.2118 
-2.17822e-05      5.44034     -89.7866 
2.17854e-05      6.58490      27.8908 
2.17470e-05      9.19198     -17.2131 
2.17170e-05      1.20142     -18.4236 
2.15569e-05      9.91892      57.0168 
0.000143429      9.37255      57.9017 
2.49833e-05      8.67563      47.1486 
0.000128022      8.67409      46.9631 
0.000190842      8.91580      48.9107 
-0.000231244      12.2569     -140.961 
-0.000173242      5.70051     -179.193 
-0.000171708      11.1538      26.5202 
4.40135e-05      9.75576      76.8488 
-0.000115994      3.54183      74.9450 
-0.000135443      3.57983     -161.763 
-6.40341e-05      10.9241     -115.250 
-4.18300e-05      11.1622      26.3825 
0.000124213      10.7025      155.255 
-7.91305e-05      9.12104     -34.9086 
0.000317984      9.36180      58.0068 
-7.79990e-05      9.06295     -8.62858 
-7.52212e-05     0.701240     -86.7487 
0.000135195      9.74067      76.7056 
-7.45459e-05      2.11299      162.942 
0.000221193      7.88860      14.9893 
-8.82616e-05      5.61991      67.1771 
1.97043e-05      10.0915      77.1759 
-8.56127e-05      10.9328     -115.346 
-0.000156895      8.20920     -101.665 
-0.000133043      6.35622     -6.14000 
-3.65996e-05      1.27791     -110.127 
0.000143886      7.31273     -12.4803 
-9.88811e-05      7.74047      89.5556 
-3.73318e-05      4.20979     -66.4782 
3.61635e-05      3.85691      99.8582 
0.000187012      10.0871      77.2881 
6.92279e-05      11.3305      40.7783 
-5.14705e-05      10.6046      50.8153 
0.000134847      8.89269      113.740 
1.84139e-05      8.25569     -26.6279 
6.93959e-05      4.67167      59.3693 
-8.21585e-05      8.90367      96.8393 
-0.000138384      10.4247      39.7052 
-8.30847e-05      6.02615     -174.670 
1.79788e-05      3.83351      99.6117 
-0.000278052      10.2515      94.4753 
-1.78449e-05      5.20214      95.2969 
6.60722e-05      7.74204     -130.810 
-6.65125e-05      9.13767     -34.8359 
3.31347e-05      8.87631      68.1734 
-0.000103096      4.20174     -66.7315 
7.69532e-05      8.35749      165.732 
-4.93465e-05      9.06004     -8.50660 
6.07174e-05      8.23758     -26.6911 
-4.82375e-05      3.32000      28.4244 
6.92924e-05      6.70693      2.56501 
-6.43318e-05      1.94141      155.010 
1.70387e-05      10.2190     -151.730 
0.000228901      11.4046      152.762 
-7.58887e-05      5.17836      94.8712 
-4.51478e-05      7.94553     -82.6260 
4.09475e-05      2.94707      121.962 
0.000220259      10.5036     -74.8806 
1.66964e-05      8.89512      68.2219 
-3.21475e-05      8.93598     -60.7982 
7.37680e-05      9.34796      115.744 
0.000123614      10.2445     -151.935 
-0.000138703      7.05343      166.552 
4.57593e-05      3.83018      99.3128 
4.43333e-05      8.66079      47.0574 
-0.000122031      11.7364     -50.5312 
-1.59281e-05      8.06866     -127.750 
-5.61808e-05      3.35261      19.5218 
-0.000108162      4.85192     -85.9826 
-6.70209e-05      8.10973     -162.638 
-2.88883e-05      11.1808     -27.2529 
-0.000107801      4.36039      157.902 
-4.41314e-05      11.4665      132.457 
6.44780e-05      10.1845     -56.7783 
4.19942e-05      4.68164      59.1638 
2.77027e-05      2.93639      121.627 
5.70546e-05      6.52213     -46.6177 
4.24593e-05      7.11259      3.38705 
4.17010e-05      8.70562     -98.0568 
-0.000132467      6.67490      166.132 
-0.000201222      6.17769     -54.3523 
-5.56058e-05      7.48916      125.983 
0.000127665      11.3151      40.8453 
-8.32413e-05      9.15369     -34.7662 
5.03698e-05      9.40018      89.7576 
-5.07665e-05      1.29046     -109.004 
8.35009e-05      10.5135     -136.929 
-4.12246e-05      9.04001     -8.52559 
-4.16433e-05      5.93443      51.4273 
-1.46940e-05      6.84896     -67.3289 
5.21706e-05      7.05266     -86.5841 
-2.69190e-05      3.57354     -162.071 
4.07614e-05      7.56079      163.243 
0.000102380      7.37920      81.5856 
-8.51007e-05      8.94588     -60.6849 
6.64526e-05      9.51903      152.197 
2.72231e-05      10.3383     -58.7709 
1.43549e-05      9.28927     -111.207 
-9.25308e-05      12.5561     -139.586 
5.01387e-05      7.40323      47.5181 
-4.09027e-05      11.8659     -124.493 
4.86415e-05      9.00588     -80.4121 
-0.000133281      9.89088     -145.794 
7.60350e-05      6.85047     -56.3099 
1.41033e-05      10.2266     -151.882 
2.75116e-05      6.78355      113.088 
-2.56870e-05      3.15668      22.3401 
1.38915e-05      10.3867     -103.018 
-0.000151851      10.8049      140.860 
-3.81745e-05      9.72970     -34.2796 
-0.000122803      7.49308     -139.765 
2.70983e-05      9.12999      51.8491 
0.000192004      9.28196     -111.090 
-8.81219e-05      10.6823      46.7448 
7.18821e-05      8.84961      70.4573 
0.000150121      10.2348     -84.0537 
1.35703e-05      8.28241      68.7635 
-1.34908e-05      6.00419     -174.837 
1.34917e-05      6.74180      69.1484 
-3.36535e-05      6.12731      10.7209 
-1.33472e-05      8.09353     -127.977 
-0.000140306      7.74066      89.4057 
