! Center RA: 12 21 31.69052,  Dec: +28 13 58.50011 (2000.0)
! Established model.
! Flux (Jy) Radius (mas)  Theta (deg)  Major FWHM (mas)  Axial ratio   Phi (deg) T \
! Freq (Hz)     SpecIndex
  0.134880    0.0202604      180.000 
 0.0721705    0.0286526      135.000 
 0.0281136    0.0202604      90.0000 
 0.0116414     0.262662      98.7088 
0.00882000     0.260423      94.4620 
 0.0116642     0.243395      99.4042 
 0.0123830    0.0446338      116.996 
0.000662544    0.0633577      108.650 
0.00428229     0.223431      100.253 
0.000468699     0.282706      98.0871 
0.000459114     0.340529      93.4109 
0.00519280     0.204262      101.227 
0.00133876     0.360755      93.2195 
0.00801863     0.184432      102.453 
0.00297527     0.322129      97.0919 
0.00113924     0.342244      96.6731 
0.00322865     0.362375      96.3009 
0.00342873     0.164706      103.973 
0.00105383     0.141777      98.2159 
0.00102573    0.0397705      90.0000 
0.00248257     0.381773      95.9795 
0.00231168     0.401929      95.6787 
0.00397793      0.00000      0.00000 
0.00380813     0.422095      95.4065 
0.00848943    0.0202604     -90.0000 
0.00616872     0.441522      95.1680 
0.00341005     0.461703      94.9415 
0.00506414     0.463888      97.4354 
 0.0151967    0.0397705     -90.0000 
0.000637583     0.627803      99.1471 
0.00317526     0.647814      98.8622 
0.00361405     0.651243      100.624 
0.00266343     0.152624      113.162 
0.000923337     0.885104      108.435 
0.00185613     0.671167      100.305 
0.00224542     0.904347      108.029 
0.00183003     0.898283      106.800 
0.000394417     0.420705      92.7603 
0.000582449     0.466942      99.9013 
0.000556819     0.399956      90.0000 
0.000541892     0.490508      101.740 
0.00103701     0.840993      107.982 
0.000524670     0.923634      107.640 
0.000705589     0.470689      102.241 
0.000356075     0.917698      106.434 
0.000338018     0.380236      86.9456 
0.00270686     0.821746      108.418 
0.000833578     0.400469      87.1001 
0.000173267     0.690371      100.015 
0.000985264     0.942245      107.281 
0.000641536     0.134233      116.565 
0.000611621     0.667840      98.5944 
0.00110464     0.475398      104.628 
0.00148132     0.961610      106.922 
0.00142612     0.401929      84.3213 
0.000673186     0.797167      107.531 
0.000892050    0.0600310     -90.0000 
0.000297425     0.495028      104.036 
0.000296998     0.116465      121.027 
0.00146612     0.480914      106.965 
0.000938828     0.113549      135.000 
0.00225355    0.0633577     -71.3505 
0.00130857     0.981011      106.578 
0.00152615     0.404436      81.4640 
0.000127925     0.665204      96.9326 
0.00152567    0.0828082     -75.8378 
0.000979345     0.815792      107.118 
0.000924531     0.467874      109.975 
0.000360819     0.100252      143.216 
0.000242023     0.999726      106.258 
0.00164081      1.00559      107.367 
0.000118694     0.645096      97.1498 
0.000861706     0.116465      148.973 
0.000329331     0.642889      95.3579 
0.00307799     0.101837     -78.5245 
0.000809615     0.457182      113.199 
0.00130661     0.407936      78.6487 
0.000941736     0.835176      106.709 
0.000199578     0.641314      93.5554 
0.00145960      1.03082      108.066 
0.000194313     0.107434      158.273 
9.76350e-05     0.427819      79.1828 
0.000188908     0.640401      91.8130 
0.000716527     0.447333      116.608 
0.000615517     0.126477      161.673 
9.07978e-05     0.660341      90.0000 
0.000175039     0.660651      88.2426 
0.000172842     0.661537      86.5534 
0.00120451     0.438758      120.073 
0.000863862     0.431906      76.6398 
0.000413389     0.663064      84.8056 
0.00135890      1.03728      109.130 
0.000596604     0.121759     -80.4216 
0.000391308     0.665204      83.0674 
7.95450e-05     0.141777      171.784 
0.000438532     0.161111      172.776 
0.000445232     0.687137      81.6487 
0.000361662     0.432889      123.690 
0.000141642     0.667840      81.4056 
7.02329e-05     0.412220      75.9891 
0.000299901     0.565518      98.1624 
0.000196626     0.546212      98.4529 
0.000192625     0.172194      144.578 
0.000189496     0.583147      95.9087 
0.000188469     0.161670      150.222 
9.27935e-05     0.134233      153.435 
9.21870e-05     0.362375      83.6991 
0.000359642     0.803259      108.858 
9.09933e-05     0.216445      123.690 
9.07141e-05     0.620151      91.8722 
8.97519e-05     0.384412      81.0157 
0.000259059     0.152624      156.838 
0.000421657    0.0446338     -63.0042 
0.000168591     0.986983      107.705 
0.000482573      1.01158      108.422 
8.26320e-05     0.465536      115.491 
0.000229419     0.164706      166.027 
7.95746e-05     0.456404      118.798 
0.000304819     0.455823      74.7283 
7.85363e-05     0.684575      83.2645 
0.000226485     0.828371      109.748 
0.000448136      1.01816      109.503 
0.000434009     0.449253      122.310 
0.000554932    0.0720098     -56.4755 
0.000141599     0.690371      79.9848 
0.000206571     0.480914      73.0353 
0.000205556     0.710331      80.2690 
0.000788337      1.04410      110.180 
6.94271e-05     0.817257      111.547 
0.000512921     0.444008      125.785 
0.000193039     0.824622      112.808 
6.63308e-05     0.181229      173.581 
0.00129583    0.0896014     -63.6495 
6.56837e-05     0.730308      80.5377 
0.000367268     0.461573      72.3015 
0.000125589     0.714035      78.6665 
0.000123846     0.180093      180.000 
6.32051e-05     0.769565      81.0245 
6.28774e-05     0.459977      124.364 
6.24705e-05     0.694181      78.3378 
0.000679148      1.05099      111.178 
6.04451e-05     0.788842      81.2456 
6.02246e-05     0.814232      114.676 
5.97514e-05     0.427737      127.372 
5.93288e-05     0.808873      81.4640 
5.86513e-05     0.832685      114.094 
0.000274278     0.698386      76.7701 
5.80560e-05     0.396866      130.860 
0.000113178     0.828914      81.6718 
0.000219989     0.822896      115.958 
0.000164161     0.381773      132.849 
0.000111670     0.456152      127.850 
5.62341e-05     0.200353      180.000 
0.000163766     0.443026      71.5344 
0.000159192     0.848223      81.8627 
0.000203587     0.201375     -174.226 
5.36224e-05     0.471709      126.396 
5.22004e-05     0.467874      70.0247 
0.000347330      1.05848      112.201 
0.000151014     0.488166      124.985 
0.000799490     0.107434     -68.2729 
5.14546e-05      1.04080      92.1899 
0.000101064     0.814312      117.793 
0.000465085     0.449587      69.1753 
0.000415238     0.381773      137.151 
5.02560e-05     0.868284      82.0520 
0.000193938      1.06049      91.0947 
0.000514844     0.703300      75.1631 
0.000230035     0.823954      119.039 
0.000136640     0.871317      80.7324 
0.000135251     0.500058      126.887 
0.000137634      1.07726      111.794 
0.000220993      1.07981      90.0000 
4.55187e-05     0.220795     -174.735 
0.000377119      1.06630      113.209 
0.000164116     0.223431     -169.747 
0.000275212     0.816540      120.973 
0.000232995     0.368782      139.373 
0.000850132     0.116465     -58.9729 
0.000171508     0.512006      128.634 
0.000312264      1.10025      88.9449 
8.06830e-05     0.891319      80.9421 
0.000470872     0.457182      66.8014 
0.000327173      1.08495      112.788 
0.000465833      2.34740      103.796 
7.07320e-05     0.894598      79.7080 
0.000239605     0.243395     -170.596 
4.20161e-05     0.527985      127.261 
0.000504562      1.65745      109.739 
3.60169e-05      1.10079      87.9295 
0.000669252     0.708758      73.5796 
0.000165104     0.809664      122.895 
0.000100409     0.524894      130.361 
0.000357124      1.12103      87.9669 
0.000404615     0.728215      74.0303 
0.000101326     0.540492      128.970 
9.94606e-05     0.826750      122.132 
0.000287515     0.384386      141.340 
0.000259058      1.63839      109.979 
0.00227269      2.32846      103.911 
0.000505784      1.09265      113.731 
3.24165e-05     0.234065      20.0616 
3.20141e-05     0.910591      81.1354 
0.000151816     0.247514     -165.964 
6.27532e-05     0.260038      22.5690 
0.000148888     0.553458      130.601 
0.000229885     0.134233     -63.4349 
0.000118383      1.46767      109.908 
6.02861e-05     0.278155      21.0264 
2.99960e-05     0.465536      64.5089 
0.000297240     0.820844      124.082 
0.000169049     0.304558      23.2171 
2.92480e-05     0.804760      124.861 
2.91631e-05      1.12193      86.9328 
0.000483882      1.70255      93.3605 
0.000603043      1.14142      86.9852 
0.000460214     0.266484     -166.981 
2.76367e-05     0.538237      132.005 
2.75206e-05      1.47469      110.648 
0.000104165     0.566349      132.100 
0.000296902      1.72176      92.6729 
0.000127037      1.49367      110.374 
0.000178150     0.331336      25.0561 
0.000101524      1.67653      109.505 
0.000410242     0.145849     -74.1761 
2.54719e-05     0.882975      76.8849 
2.50509e-05      3.22016      90.7076 
0.000794288      3.24042      90.7032 
4.80641e-05     0.580127      133.585 
7.21020e-05     0.837701      123.306 
0.000135468      1.69493      109.285 
4.71397e-05     0.551483      133.511 
0.000114786     0.357396      26.5651 
6.68302e-05     0.867991      75.3270 
8.67030e-05      1.51906      110.834 
0.000143781     0.690066      73.1217 
0.000111979     0.854707      122.560 
8.82316e-05     0.565624      135.000 
6.67310e-05      1.50084      111.099 
2.28029e-05     0.493986      68.6188 
0.000129285      3.37998      90.6742 
0.000186361      1.11054      113.326 
0.000123785     0.375627      25.1828 
8.69046e-05      1.10096      114.696 
2.13602e-05     0.512905      69.4440 
0.000182009     0.871214      121.869 
2.09671e-05     0.594276      135.000 
0.000256353     0.580127      136.415 
0.000753678      4.23499      104.499 
0.000234334      1.71407      109.062 
0.000118785      3.26947      113.423 
0.000334589      3.40024      90.6702 
0.000117609      1.70152      92.7047 
4.02861e-05     0.404832     -32.8948 
2.01622e-05     0.832367      125.237 
0.000114759     0.271765     -162.816 
9.58288e-05      1.16287      86.0408 
9.22897e-05      1.52611      111.519 
0.000127540     0.796200      128.879 
4.87375e-05     0.607364      72.7515 
0.000112876     0.399806     -36.9129 
5.13604e-05     0.888484      121.180 
0.000238654     0.164706     -76.0271 
1.89485e-05      3.16651      115.429 
0.000533945      1.72093      91.9990 
0.000121370     0.402700      26.5651 
1.87150e-05      3.28807      113.283 
6.08605e-05     0.905232      120.540 
0.000233016      1.16165      87.0378 
8.90775e-05      3.15771      115.914 
0.000234821      1.12917      112.919 
1.84734e-05     0.550320      70.8980 
8.81211e-05      3.29838      112.837 
0.000137818     0.291183     -163.994 
7.78339e-05     0.915694      121.632 
0.000236715     0.416183     -35.2375 
1.73992e-05     0.933005      120.980 
1.73851e-05     0.569504      71.5651 
6.08445e-05     0.771858      73.4501 
0.000248981      2.59391      107.041 
9.59620e-05      3.14845      116.406 
0.000203313      3.42050      90.6662 
1.66657e-05     0.588045      72.1662 
0.000108377      3.31706      112.702 
0.000189876     0.794223      130.901 
0.000213596      3.02206      104.951 
0.000116293      1.55243      111.940 
0.000188188     0.297155     -160.375 
5.76334e-05     0.387976      145.480 
0.000258860      4.21538      104.568 
4.16464e-05     0.626742      73.3008 
0.000111750      2.58037      107.587 
3.08292e-05     0.566349      137.900 
0.000141595     0.753177      73.0274 
0.000171877     0.899141      122.284 
0.000137333     0.412159      29.0850 
3.02840e-05      1.73323      108.843 
0.000125163      3.13910      116.890 
0.000169763     0.580972      139.190 
8.36548e-05      1.18309      86.1086 
0.000238135      1.74557      108.030 
0.000318449      3.42032      90.3394 
0.000238738      4.60604      113.006 
0.000193552      3.33576      112.567 
5.12551e-05     0.960569      87.6271 
2.79120e-05      1.14786      112.525 
0.000150799     0.421988     -31.4006 
2.70222e-05      2.56802      108.149 
0.000386636      4.01202      104.725 
0.000729092      5.61738      94.4897 
3.66113e-05      3.99765      105.080 
0.000154060      1.74060      91.3092 
4.75463e-05      2.57440      108.578 
0.000120089      1.18188      87.0885 
0.000491736     0.304558     -156.783 
8.65208e-05      2.86567      119.250 
0.000392539      3.25974      90.3561 
0.000115446      2.56153      109.136 
0.000181889      3.13097      117.382 
0.000107421     0.181229     -83.5812 
3.03129e-05     0.399806      143.087 
0.000184251      2.72134      88.3093 
0.000124095     0.809071      129.996 
0.000124979     0.645453      73.7984 
0.000305666      2.10187      92.1892 
9.31830e-05      1.56011      112.630 
0.000148391      2.85765      119.790 
0.000192046      3.35378      112.439 
1.14975e-05      3.56506      111.380 
5.69007e-05     0.438496      136.803 
0.000129582     0.429314      27.8192 
0.000113958     0.596454      140.462 
0.000169925      3.57690      110.971 
0.000129769     0.438758     -30.0730 
0.000129299     0.424884      138.795 
0.000308024      3.43983      90.3375 
4.16853e-05      3.28000      90.3539 
2.00046e-05     0.940453      88.7656 
0.000168323      2.54080      115.150 
2.86428e-05     0.452074      135.000 
0.000136474      1.20255      86.1717 
0.000180707      1.77740      107.012 
0.000376249      4.91411      108.510 
0.000141088      4.61370      113.229 
0.000202800     0.882079      122.987 
0.000299453     0.664933      74.2855 
0.000285138      2.34282      103.333 
0.000215622      1.59296      82.7746 
0.000176347      2.74148      87.9137 
0.000183997      3.12242      117.883 
6.35374e-05     0.865779      123.690 
0.000121060      2.86777      120.141 
4.40616e-05     0.600310      143.130 
4.92721e-05      1.53091      96.7558 
8.05382e-05      1.57883      112.348 
7.30791e-05     0.184432     -77.5470 
0.000314616      2.53122      115.760 
0.000155644     0.447333     -26.6080 
0.000213228      5.59881      94.7126 
9.71898e-05      1.18103      88.0702 
1.64342e-05     0.612215      141.669 
1.55073e-05     0.940235      90.0000 
5.47671e-05      3.36128      112.747 
0.000104119     0.616029      144.219 
1.56548e-05     0.466621      133.241 
0.000139578      3.46003      90.0000 
0.000295353      3.74292      113.965 
2.18546e-05      2.72198      87.8988 
1.49910e-05      5.92843      93.0909 
0.000387237      4.25461      104.431 
8.18449e-05      3.37252      112.308 
0.000176573      5.92741      92.9026 
0.000113615      1.79102      106.203 
7.26444e-06     0.509625      131.837 
7.13468e-06      1.00495      121.162 
0.000182276     0.201375     -84.2257 
2.05694e-05      1.56772      113.289 
5.19736e-05      4.62173      113.460 
7.01737e-06      1.11872      114.279 
0.000111965      3.00321      105.047 
0.000103993      3.37997      112.614 
0.000117138      2.86056      120.696 
3.75755e-05      1.28036      118.953 
0.000165137      2.74229      87.4907 
2.35718e-05      1.54807      95.9261 
6.80127e-06     0.496341      130.094 
3.27393e-05     0.331336     -154.944 
1.88316e-05     0.920834      92.4754 
6.53475e-06      3.56970      110.667 
0.000160215      1.58635      112.999 
5.97280e-05      2.33823      102.850 
0.000142128      4.90771      108.285 
9.62948e-05      1.18053      89.0166 
1.25608e-05      3.13159      118.198 
0.000177556     0.621223      75.0909 
0.000342234     0.323277     -158.199 
0.000153659      3.48029      90.0000 
0.000271932      3.12343      118.702 
6.72014e-05     0.475177     -22.2719 
0.000134623     0.411820      140.916 
3.48908e-05      2.12069      91.6221 
0.000113011      4.60384      113.557 
5.91185e-05     0.632576      145.292 
0.000111865      5.58107      94.9364 
2.21807e-05      2.35799      102.740 
9.56257e-05      3.00245      87.7082 
0.000179614      5.94665      92.6978 
1.62724e-05     0.921931      93.7334 
2.71376e-05     0.807634      131.987 
2.98111e-05      1.29029      119.741 
0.000106439      2.12136      92.1691 
0.000257706      2.52259      116.367 
3.98640e-05      1.80520      105.428 
3.07073e-05     0.792690      132.967 
9.20125e-05      3.27994      90.0000 
6.74993e-05      5.64119      91.2195 
0.000151900      3.80471      102.137 
5.07827e-06      1.12320      94.0993 
9.02772e-05     0.486965     -19.1609 
0.000106956      4.92089      107.996 
4.93216e-06     0.923472      94.9879 
3.34654e-05      1.52866      96.0016 
9.21380e-05      3.49980      90.0000 
0.000167152      2.87057      121.031 
9.37154e-06     0.907689      97.6009 
7.72908e-05      5.56260      95.1545 
2.62397e-05     0.638318      147.823 
0.000120492      1.82402      105.265 
2.71065e-05      2.99821      104.687 
3.23020e-05     0.910591      98.8646 
5.67830e-05      5.15514      111.385 
0.000159218      5.62093      91.2239 
0.000105867      5.13628      111.467 
8.33768e-06     0.532403      124.317 
3.60583e-05      3.00333      87.3220 
1.19251e-05      1.28304      120.975 
8.11728e-05      1.59554      82.0795 
5.92492e-05      5.96689      92.6886 
2.94917e-05     0.644631      150.272 
4.51402e-05      3.52012      89.6702 
6.83111e-05      4.92713      107.477 
7.35847e-05      5.54429      95.3819 
2.57853e-05      3.12573      119.513 
6.41151e-05      3.02357      87.3400 
-0.000346448      1.90888      112.805 
1.74343e-05     0.500328     -16.2877 
1.92942e-05      1.54617      95.2070 
-0.000199044      1.43373      67.0180 
-0.000313341      3.02283      112.153 
3.53507e-06      2.29135      106.221 
2.70123e-05      3.54038      89.6721 
1.38162e-05      2.27770      106.853 
1.01011e-05      4.58527      113.658 
9.96584e-06      5.96598      92.4942 
9.98786e-06      1.59438      113.670 
2.30220e-05      2.26481      107.468 
3.33951e-06     0.898439      101.563 
3.88106e-05      4.00297      105.360 
5.50470e-05      1.60433      112.727 
4.12205e-05     0.519084     -15.6837 
1.51996e-05      2.14095      91.6068 
4.35997e-05      4.59578      113.325 
0.000112191      1.81049      106.024 
5.82437e-05      5.98547      92.4861 
2.29127e-05     0.902718      102.823 
6.29781e-06      2.35361      102.259 
6.77140e-05      3.58032      89.3635 
2.07277e-05     0.653108      152.640 
3.97890e-05      2.25171      108.115 
0.000106915      5.52681      95.6100 
1.78551e-05      1.22602      84.3801 
3.09426e-06      1.04313      122.455 
2.83683e-05      3.25968      90.0000 
5.24717e-05      1.57042      83.4149 
1.15591e-05      2.36938      101.694 
3.32594e-05      3.75089      114.237 
1.66418e-05     0.456404      28.7984 
2.98864e-06      1.09157      118.450 
2.76389e-05     0.416183      144.763 
1.68979e-05      4.94066      107.191 
4.46886e-05      2.23890      108.769 
1.36943e-05      1.10943      117.952 
4.86284e-05      3.11375      118.375 
-8.04706e-05      5.66062      96.8980 
1.60709e-05      1.24756      83.5418 
2.80457e-06      1.62304      112.451 
1.86919e-05      5.60142      91.2282 
2.79038e-06      2.98365      105.148 
3.46459e-05      1.61227      113.391 
3.45094e-05      3.04305      87.3570 
1.07609e-05      5.90151      91.1657 
3.18241e-05      2.98901      105.523 
1.06005e-05      2.38449      101.123 
1.84434e-05      2.53132      116.763 
2.69162e-06     0.777987      136.016 
5.26768e-06      2.14047      91.0646 
2.08195e-05      2.22684      109.406 
1.03740e-05      3.98867      105.707 
5.24663e-06      4.93471      106.966 
2.62347e-06     0.764056      137.109 
-1.54690e-05      1.63839      70.0214 
-1.54865e-05      3.58950      94.1479 
7.73716e-06      6.00490      92.2918 
1.27998e-05      5.51069      96.0421 
-1.02245e-05      2.76173      92.0710 
2.54029e-06      4.94824      106.673 
2.54094e-06      6.00571      92.4777 
-0.000656080      11.0325      46.0279 
