! Center RA: 12 21 31.69053,  Dec: +28 13 58.50012 (2000.0)
! Established model.
! Flux (Jy) Radius (mas)  Theta (deg)  Major FWHM (mas)  Axial ratio   Phi (deg) T \
! Freq (Hz)     SpecIndex
 0.0406783      0.00000      0.00000 
 0.0560767    0.0202604     -90.0000 
 0.0250760    0.0202604      180.000 
0.00126631    0.0286526      135.000 
0.000301370    0.0446338      116.996 
0.00413924    0.0828082      104.162 
0.00438154    0.0286526     -135.000 
 0.0126858     0.101837      101.476 
0.00226630     0.120062      90.0000 
0.00116120    0.0446338     -153.004 
0.00110402     0.204262      78.7726 
0.00586971    0.0562440     -135.000 
0.000264396     0.201375      84.2257 
0.00589286     0.223431      79.7468 
0.00129449     0.121759      99.5784 
0.00259556     0.220795      84.7351 
0.000612044     0.116465     -148.973 
0.00217751     0.161670     -150.222 
0.00273356    0.0286526     -45.0000 
0.000253026     0.243395      80.5958 
0.000250338     0.315980      124.747 
0.000632432     0.178866     -153.327 
0.000364136     0.227911      105.272 
0.00105261     0.170734     -159.414 
0.00101165     0.234065      110.062 
0.000495976     0.141777      98.2159 
0.00111369     0.152624     -156.838 
0.00255373     0.878166      120.049 
0.000837011     0.260038      112.569 
0.000441401    0.0998015      90.0000 
0.00191800     0.134233     -153.435 
0.000253791     0.268467      116.565 
0.00114401     0.690733      112.079 
0.00166457     0.905232      120.540 
0.00128747     0.295127      118.390 
0.000351382     0.984607      102.903 
0.000540664     0.989328      104.047 
0.000162070    0.0802914      90.0000 
0.000762435     0.965599      103.161 
0.000635383      1.74678      129.894 
0.000545714     0.683639      110.563 
0.000531752      1.72869      138.749 
0.000692228     0.922740      119.901 
0.000666811     0.332828      122.759 
0.000821980     0.970413      104.326 
0.000245921     0.344213      125.596 
0.000378784     0.651397      107.913 
0.00126074      1.73129      130.324 
0.000461826      1.75728      138.687 
0.000919295     0.503350      96.8496 
0.000591985     0.940357      119.286 
0.00126497     0.369026     -102.567 
0.000272897     0.388092     -101.940 
0.00264929     0.365154     -99.4623 
0.000534141      1.96948      131.293 
0.000533783     0.975424      105.437 
0.000203227     0.372066      126.223 
0.000337748      1.74212      138.248 
0.000741406     0.947854      117.640 
6.78827e-05      1.93039      140.046 
0.000902815      1.94596      140.429 
6.36089e-05     0.240977      85.1771 
0.000121753     0.384386      128.660 
0.000363975    0.0446338     -26.9958 
0.000780796     0.800901      87.1537 
0.000352112     0.266484      76.9812 
0.000283301     0.645453      106.202 
0.000175674     0.981011      106.578 
0.000177464     0.965848      117.083 
0.00420333      4.78961      106.998 
0.000772907     0.400469      177.100 
0.00152301      2.87981      127.664 
0.00113632     0.271765      72.8159 
5.56383e-05     0.443026      71.5344 
0.000700280     0.781960      85.5971 
0.000205066     0.975367      115.520 
0.000158272      2.41890      119.738 
0.000154402      2.13685      133.107 
0.000149196     0.461573      72.3015 
0.00111033      2.44590      119.924 
0.000276176     0.957123      116.043 
0.000655691      1.71824      129.809 
0.000243664     0.304887     -121.617 
0.000145379     0.640096      104.460 
4.76510e-05      2.15023      133.487 
0.000300380      2.17887      133.507 
0.000725491      1.72761      137.817 
4.57241e-05     0.984607      113.967 
0.00142196     0.300155     -126.870 
0.00214417      2.89224      127.982 
0.000167472     0.635505      102.756 
0.000162951     0.467874      70.0247 
4.39568e-05     0.987971      111.381 
0.000684143     0.422095      174.593 
0.00112932      2.68039      127.733 
0.000665259      2.98069      125.719 
0.000214207     0.976552      112.881 
7.87794e-05     0.247514      75.9638 
0.000322137     0.620320      69.2412 
7.64140e-05     0.966811      114.437 
0.000413309      2.19287      133.891 
0.000459773      2.32957      105.948 
0.000223166     0.253192      71.5114 
0.00126381      2.99212      126.022 
3.49607e-05     0.938962      116.586 
0.00114235      2.32408      105.468 
0.00124728      9.16034      115.612 
3.18448e-05     0.475177      67.7281 
0.000198835     0.627787      67.5118 
0.000157836     0.969133      111.818 
0.000276470     0.780666      87.0798 
3.02478e-05     0.948403      114.943 
0.000815284      8.43084      106.112 
0.000103624     0.551483      136.489 
0.000162799      2.45570      120.318 
0.000729658      6.01517      103.851 
0.000559802      6.27572      101.952 
0.000128899      2.20644      134.256 
0.000156873     0.278155      68.9736 
0.000533869      9.42285      105.510 
0.000329694      9.42828      105.629 
0.000409227      5.05103      119.406 
0.000348965     0.973929      109.161 
0.000368494      2.57483      133.111 
0.000125971      1.70273      130.245 
0.000376381     0.260038      67.4310 
2.58050e-05     0.903572      117.714 
0.000157304     0.420705      177.240 
0.000122281      8.27273      105.278 
7.33033e-05     0.800169      88.5491 
0.000271001      2.13099      99.7310 
0.000313399      4.16008      124.223 
0.000321144      2.66166      97.3374 
0.000389735      6.90188      107.018 
0.000131294      4.50964      109.156 
0.00136733      4.78372      106.766 
0.000155753     0.315980     -124.747 
0.000183309      8.24806      105.184 
0.000543256      5.04340      119.720 
6.65345e-05      7.96558      106.934 
0.000140556      1.71589      130.762 
8.56141e-05      4.53544      109.313 
8.61585e-05      2.22062      134.630 
2.22138e-05      1.96162      140.806 
0.000270643      2.57644      132.486 
8.06656e-05     0.523357      136.510 
0.000136322      1.71265      137.362 
0.000227678      4.32357      112.296 
0.000348661      7.94620      106.977 
2.10078e-05      2.67180      149.409 
0.000734230      2.68926      149.628 
0.000329441      2.14692      99.1101 
0.000224700     0.268467      63.4349 
0.000688782      2.69237      128.061 
3.97848e-05     0.483220      65.5045 
0.000115464     0.312731     -129.841 
0.000864787      7.37187      113.504 
0.000147083      2.20625      135.000 
0.000748823      2.71634      149.468 
5.75717e-05      8.42544      105.985 
0.000327269     0.327950     -127.657 
1.94395e-05      2.76067      97.0729 
0.000266061      2.75825      96.6552 
0.000356957      5.35919      117.810 
0.000108793      8.13022      116.752 
3.55484e-05      8.14832      116.688 
0.000629705      7.07255      99.2744 
0.000501076     0.465536      64.5089 
0.000248795      8.11928      101.364 
0.000289572      8.91867      117.369 
4.92376e-05      2.33853      104.875 
0.000834820      2.50364      77.0800 
0.000296547      8.25319      105.315 
1.74648e-05     0.617068      65.1178 
0.000663555     0.286050      65.1829 
0.000132477      7.93936      118.762 
3.41434e-05      1.72644      136.867 
0.000204458      2.22062      135.370 
1.67699e-05      1.71407      131.681 
0.000310747      1.71171      136.403 
0.000563173      9.45181      123.521 
6.25428e-05     0.967701      108.070 
0.000101120      4.97240      103.252 
0.000524213      8.11546      101.229 
0.000160685      1.72761      132.183 
0.000281002      2.75606      96.2523 
1.61759e-05      7.93203      109.439 
0.000158677      2.28266      98.0502 
0.000191336      6.01035      103.663 
7.72238e-05      4.17685      124.067 
0.000278967     0.392593     -104.727 
0.000436813      7.96651      118.815 
0.000217736      2.14381      98.5754 
0.000305561      7.95192      107.111 
0.000585049      4.96797      103.033 
7.22526e-05      2.56438      131.512 
2.99565e-05     0.420217      180.000 
1.54319e-05      8.15744      116.815 
5.81550e-05      4.34903      112.437 
0.000278321      5.03555      120.027 
4.24005e-05      6.88323      107.066 
8.39581e-05     0.357396      26.5651 
0.000203137      4.14914      124.000 
0.000539958      2.88946      128.537 
0.000415852      2.34361      105.336 
0.000442373      4.63270      104.761 
0.000348084      8.42161      114.555 
0.000220701      8.69396      116.508 
0.000442440     0.325575     -132.478 
1.39754e-05     0.961610      106.922 
1.39739e-05      7.09583      99.4095 
0.000835457      7.09255      99.2481 
0.000362452      2.69578      123.809 
0.000193786      6.67798      98.7839 
0.000345733      2.70611      149.837 
0.000107479      6.66183      98.9817 
0.000261877      2.77620      96.2068 
0.000448934      5.98607      103.528 
0.000162831      2.73381      149.684 
0.000230696      5.36832      117.994 
0.000279030     0.349107      23.6999 
0.000325217      8.11154      101.089 
0.000147114      5.94614      119.409 
0.000317567      2.28001      97.5647 
1.29040e-05      4.50328      108.921 
6.13307e-05      4.18317      110.431 
0.000128381      8.21455      100.378 
0.000149243      2.23455      135.721 
8.34234e-05      1.72644      133.133 
8.65935e-05      9.15192      115.502 
0.000111225     0.398226     -107.547 
0.000538215      9.46301      123.623 
0.000262327      8.70269      116.622 
0.000388609      5.02887      120.338 
5.40464e-05      2.12766      99.1932 
2.28780e-05      4.17614      110.170 
0.000226129      8.23365      105.352 
0.000138062      4.16595      123.845 
0.000214758      1.71126      135.480 
8.02467e-05      6.88920      107.227 
0.000217902      4.19516      110.075 
3.95364e-05      9.41765      105.396 
0.000105901      4.76433      106.837 
9.26450e-05      7.99403      118.872 
7.90102e-05      6.67503      98.6183 
0.000172436      7.93856      107.294 
5.14990e-05      8.02663      100.188 
0.000263080      2.52266      77.1791 
0.000260467      6.42922      112.494 
4.04165e-05     0.449253     -122.310 
0.000161593     0.665001      43.7656 
0.000123806      6.65870      98.8095 
9.40503e-05      2.24910      136.081 
7.14693e-05      8.92800      117.485 
0.000118443      8.02320      100.051 
0.000140100     0.459977     -124.364 
3.69302e-05      4.27227      122.571 
7.34432e-05      7.97630      118.943 
7.68162e-05      4.25521      122.718 
0.000104560      2.77408      95.7908 
0.000184970      5.96380      119.313 
0.000112284      2.41230      78.0434 
0.000119347      9.25611      122.112 
9.49345e-05      8.69369      116.802 
6.94548e-05      2.96891      125.401 
5.06587e-05      8.21822      100.517 
5.86359e-05      7.36381      113.360 
6.65639e-05      4.96344      102.805 
8.28132e-05      8.47053      116.808 
-0.000182522      8.41890      107.705 
5.77810e-05      9.05176      116.790 
5.75349e-05      8.45030      106.074 
3.31207e-05      8.00384      118.999 
4.88790e-05      2.26374      136.437 
6.50694e-05      1.33812      99.4570 
2.44235e-05      2.65438      149.186 
4.02204e-05      2.52724      76.7312 
7.86052e-06     0.474259      62.3808 
0.000965730      8.73976      135.372 
0.000726134      6.61937      140.391 
0.000421957      4.98018      142.666 
0.00129434      5.89654      148.737 
0.000187644      8.75400      135.278 
0.000365312      4.96468      142.529 
0.000138033      4.96792      142.851 
0.000368633      8.67409      136.963 
2.73091e-05      8.93873      135.724 
0.000117363      6.63500      140.502 
0.000164617      8.95325      135.815 
0.000209552      6.65001      141.713 
6.63068e-05      8.68793      136.865 
6.60146e-05      5.91323      148.835 
0.000106737      4.96957      141.696 
4.37544e-05      6.63183      140.261 
0.000127545      4.26619      122.947 
2.10181e-05      9.29444      122.253 
4.13681e-05      8.24305      107.072 
2.05868e-05      3.99643      121.705 
2.03073e-05      8.03864      118.862 
0.00104073      6.79861     -120.791 
0.000561529      6.82536     -120.848 
-0.00131771      10.3328      13.2026 
0.000861569      9.90763     -168.825 
0.000611202      6.77257     -25.3555 
-0.00174918      12.6205     -133.330 
0.000522991      5.31639      20.4813 
0.000418187      11.1072     -51.0657 
0.00121332      4.51115     -166.151 
0.000938568      7.08078     -130.306 
0.000773582      7.49716     -79.8598 
-0.000737930      4.26180     -144.748 
0.000199761      7.93977     -147.552 
-0.000198967      8.98714     -18.9584 
-0.000385653      12.7312     -47.9935 
-0.000652279      9.48641     -169.923 
-0.000717725      8.69969     -53.1311 
-0.000633364      6.30585     -162.085 
-0.000194226     0.381773      95.9795 
-0.000628107      5.60807     -165.121 
0.000538223      7.33191     -107.296 
-0.000890482      5.31882     -22.3208 
0.000792925      11.1200     -50.9845 
0.000353605      2.70577      41.7061 
-0.000336397      3.25089      156.435 
-0.000353145      12.7321     -48.1200 
-0.000440578      11.8333     -58.9702 
-0.000604131      5.30191     -104.190 
0.000437154      5.33467      20.4080 
-0.000698905      8.97531     -19.1212 
0.000188099      10.4126     -15.3703 
0.000525561      9.85153     -140.849 
0.000174777      7.95066     -147.429 
0.000430424      4.40848     -119.938 
-0.000509308      3.61637     -84.6064 
-0.000350451      12.8431      133.989 
0.000347823      12.0424      146.653 
9.23632e-05      3.17989      9.04221 
-0.000269842     0.380236      93.0544 
0.000174663      7.09483      3.71733 
0.000341871      9.59462      151.352 
0.000753006      10.4261     -15.2345 
0.000179938      13.3081      135.062 
-0.000257250      6.97491     -57.7718 
-0.000257340      6.20435      177.782 
0.000257925      9.18621     -35.6960 
0.000173122      7.10885     -130.321 
0.000504899      5.81411     -121.064 
-0.000420381      10.7673     -24.4717 
0.000592013      7.30199     -178.587 
0.000253796      7.13324      3.53423 
-0.000579607      4.36437      67.0808 
-8.83679e-05      3.83633     -36.0966 
-0.000332794      13.0538     -48.7896 
-0.000496085      3.25904      156.109 
0.000330875      2.56416     -93.1370 
-8.67316e-05      11.3253      117.560 
-0.000409213      7.81918      150.419 
0.000409088      13.3219      135.121 
-0.000330206      11.0798      57.4562 
-0.000407752      7.28071      107.589 
-0.000322651      11.3326     -36.2447 
-0.000166283      6.96419      28.8489 
-0.000322161      9.50636     -169.944 
-0.000245879     0.400469      92.8999 
-0.000242747      12.5724     -38.3474 
-0.000164077      11.3347      117.651 
0.000343250      5.13474     -78.9971 
0.000238870      4.64753      58.9125 
-0.000161886      5.81621     -170.697 
-0.000160479      4.51115      166.151 
8.23979e-05      9.56696     -132.797 
-0.000240448      3.66495     -46.9829 
0.000240212      4.30519      114.421 
0.000237600      14.3687     -135.451 
-0.000236514      10.1883     -173.347 
-8.07684e-05      9.55860      168.902 
-8.04723e-05      12.0283     -37.3646 
8.03128e-05      10.4201     -103.315 
0.000157038      10.2590     -97.9547 
-7.92746e-05      9.29345     -19.8776 
-0.000155713      10.1068      161.422 
7.89817e-05      5.86439      14.4185 
7.88904e-05      12.5310      135.648 
0.000155516      8.41499     -59.9002 
7.89761e-05      6.86495     -2.16746 
-7.85769e-05      9.14280     -42.6950 
7.84698e-05      6.90304      13.2341 
7.82083e-05      9.48032      37.1121 
7.81698e-05      11.3781     -58.2942 
7.78072e-05      9.67348      44.8334 
7.76883e-05      13.6498      136.127 
-7.75678e-05      10.9871     -59.8416 
-7.74545e-05      13.6189     -132.383 
7.74153e-05      7.49362     -80.0123 
7.74108e-05      2.08794      36.4210 
7.68994e-05      10.3553     -157.397 
-7.67500e-05      8.96351      172.177 
-7.67493e-05      6.50938      150.755 
7.65640e-05      4.22340      158.902 
-7.64667e-05      3.11449     -165.873 
-0.00164720      9.66481     -73.7784 
0.000137315      10.0324     -92.8553 
-0.000659955      12.5502     -38.6598 
0.000350544      10.0334     -92.9709 
0.000548926      11.6732      28.8915 
0.000235667      12.6312     -136.090 
-0.000384400      6.35675     -36.0393 
0.000340757      8.75700     -60.7399 
0.000611932      11.3718     -28.0058 
-0.00137925      10.5990     -159.684 
-0.000156061      9.00350     -84.3897 
0.000390996      8.44104     -61.2477 
0.000103871      4.84263      1.89141 
0.000150404      3.52443     -22.3496 
0.000202834      11.9383     -55.5098 
-0.000362947      8.71216      106.812 
-5.35593e-05      10.6250     -159.620 
-5.32458e-05      5.03799     -98.6780 
0.000138025      8.43131     -61.3684 
-0.000201828      5.70498     -125.584 
-0.000307355      9.25139      151.884 
-0.000100327      11.5453      119.584 
-0.000364392      7.17008     -28.8531 
9.89883e-05      7.12001      62.9300 
-5.04118e-05      10.4304      109.373 
-9.40561e-05      4.66004     -32.7330 
0.000357860      12.7521     -137.225 
-9.38948e-05      7.80397     -91.7632 
-0.000139532      5.03498     -98.4501 
0.000394445      8.74711     -60.8556 
0.000184214      12.9917     -132.879 
9.67109e-05      12.7824      127.947 
4.91331e-05      9.88035      180.000 
0.000792022      9.72970     -92.5903 
-9.14338e-05      10.9228      25.4842 
0.000168161      6.90704      78.9831 
-0.000218487      9.67049     -73.6631 
-0.000333308      7.78765      167.394 
0.000409545      6.04034     -30.2154 
-0.000303178      5.68912     -125.698 
8.94843e-05      9.65444      15.1294 
0.000997221      12.7664      128.003 
-0.000255870      8.30198      1.24300 
-4.60968e-05      3.85927     -11.6551 
0.000171508      9.89986      180.000 
-0.000168721      6.13075      86.6319 
-4.55674e-05      9.18032     0.248215 
-4.53749e-05      10.4840      15.1483 
4.53680e-05      10.4337     -66.3848 
0.000254990      5.46880     -79.6769 
-0.000203704      8.95393      124.718 
0.000245284      7.56032      8.36655 
4.45450e-05      11.9268     -55.5901 
-0.000330039      10.4652      15.1762 
0.000200624      9.63561      15.1596 
-0.000348130      7.10171      133.403 
-8.41105e-05      11.5177      119.546 
-0.000272718      12.0079     -45.8760 
0.000187456      11.6597     -54.5639 
4.30717e-05      7.10198      62.8556 
-0.000193716      11.1945     -114.823 
-0.000160986      8.30496     -147.190 
0.000491939      12.1266     -56.9137 
-4.27529e-05      12.5660     -38.6021 
4.27929e-05      5.78564      34.2919 
0.000202159      3.91494     -82.3669 
-0.000264056      9.68034     -119.319 
0.000379785      6.87360     -166.367 
-0.000742175      10.1453     -128.676 
-4.19692e-05      9.16006     0.248764 
-0.000251353      11.1365      25.8761 
-8.08653e-05      5.30931     -97.7980 
-0.000363332      12.5534     -38.5298 
-7.86042e-05      8.14801     -26.3763 
0.000504766      2.75817      150.464 
-4.09270e-05      6.37253     -35.9361 
-4.06746e-05      6.18515     -61.1993 
-4.04231e-05      7.37674      86.1154 
4.02267e-05      9.84885      16.1511 
0.000521217      12.7664     -137.284 
4.01102e-05      13.0050     -132.942 
-0.000106034      11.5274      55.6768 
0.000185444      9.74977     -60.9098 
0.00109253      13.7066      136.242 
3.93196e-05      9.42356      37.0643 
-0.000136898      7.80337     -91.6145 
-0.000218274      12.0492     -135.404 
-0.000325061      7.66640      136.055 
0.000113879      9.12243      85.9765 
-7.34044e-05      5.71183     -107.738 
-0.000377959      11.7086     -42.2986 
3.87423e-05      6.02349     -30.3088 
3.87866e-05      7.00479      121.691 
-0.000148652      3.62222      120.528 
-0.00111772      9.63972      42.5614 
-0.000395742      5.70097     -125.864 
-0.000174135      5.19855     -4.85224 
-3.83257e-05      9.00154     -84.5180 
-0.000143834      6.17577     -61.3579 
0.000354547      6.99417      121.550 
-0.000180993      11.6936     -42.3654 
-3.79246e-05      7.08880      125.935 
3.79273e-05      13.0060     -132.821 
0.000585520      10.4759      77.3176 
-0.000248863      8.97242      64.5193 
0.000176578      8.76482     -60.9201 
