! Center RA: 12 21 31.69052,  Dec: +28 13 58.50011 (2000.0)
! Established model.
! Flux (Jy) Radius (mas)  Theta (deg)  Major FWHM (mas)  Axial ratio   Phi (deg) T \
! Freq (Hz)     SpecIndex
 0.0714950    0.0286526     -135.000 
 0.0306480    0.0446338     -153.004 
 0.0208667    0.0446338     -116.996 
0.00903685    0.0562440     -135.000 
0.00708009    0.0633577      108.650 
0.00444074     0.101837      101.476 
 0.0209494    0.0998015      90.0000 
0.00495053    0.0720098     -123.524 
0.00426079     0.121759      99.5784 
0.00403496     0.141777      98.2159 
0.00626745    0.0633577     -108.650 
0.00485560     0.161111      97.2243 
0.00169338     0.181229      96.4188 
0.000798872     0.220795      95.2649 
0.00188894     0.240977      94.8229 
0.00175745     0.260423      94.4620 
0.00316181     0.282706      98.0871 
0.00698189     0.645453      106.202 
0.00193001     0.302778      97.5477 
0.00544976    0.0828082     -104.162 
0.00125194     0.640096      104.460 
0.00323617     0.325253      100.636 
0.00739382     0.664933      105.714 
0.00117844     0.345185      100.015 
0.00678437     0.101837     -101.476 
0.00518921     0.369026      102.567 
0.00575269     0.120062      90.0000 
0.000563616     0.690066      106.878 
0.000548628     0.392593      104.727 
0.000137479     0.786103      104.766 
0.000399884     0.670704      107.381 
0.00115865     0.804984      104.412 
0.000933664     0.651397      107.913 
0.00612345     0.120062     -90.0000 
0.00124820     0.824622      104.062 
0.00227260     0.373757      105.487 
0.00236594     0.626742      106.699 
0.000727078     0.349279      103.290 
0.00180346     0.849131      105.006 
0.000350933     0.632861      108.456 
0.000799943     0.873342      105.959 
0.000714968     0.878907      107.182 
0.000263799     0.904347      108.029 
0.00103902     0.519084      105.684 
0.000578816     0.538618      105.101 
0.000443822     0.563425      106.480 
0.000428148     0.582160      105.935 
8.53924e-05     0.601667      105.406 
0.000416220      2.65830      114.445 
8.44892e-05     0.675085      101.997 
0.000240606     0.694181      101.662 
8.16026e-05      2.66674      114.842 
0.00199735      2.68514      114.660 
0.000524055     0.569504      108.435 
7.88530e-05     0.588045      107.834 
0.000152009     0.690371      100.015 
0.000354349     0.710331      99.7310 
0.000272543     0.550320      109.102 
0.000132512     0.707189      98.1129 
0.000127488     0.557279      111.071 
0.000127866     0.576231      110.346 
0.000126911     0.681013      93.3479 
6.18294e-05     0.680152      91.7070 
0.000239235     0.583302      112.144 
6.08108e-05     0.660651      88.2426 
0.000119219    0.0600310     -90.0000 
0.000118908     0.661537      86.5534 
5.85631e-05     0.810060      105.749 
0.000284174      2.71103      114.863 
0.000700016    0.0802914     -90.0000 
5.78655e-05     0.663064      84.8056 
0.000168930     0.564587      112.919 
5.70610e-05     0.645096      82.8502 
5.67300e-05     0.835176      106.709 
0.000272884     0.647814      81.1378 
0.000110243     0.860287      107.566 
0.000215302      2.74660      115.452 
0.000211008     0.545983      113.747 
0.000157853     0.885104      108.435 
5.22228e-05      2.77329      115.636 
0.000253531     0.651243      79.3763 
5.18598e-05      2.58948      113.192 
5.17488e-05     0.572781      114.786 
5.12319e-05      2.79966      115.837 
5.08493e-05      2.55536      112.551 
0.000340288     0.910821      109.241 
5.03710e-05      2.81791      115.658 
4.98695e-05      2.54766      112.130 
9.74095e-05     0.501727      113.536 
4.95593e-05      2.84463      115.835 
9.74596e-05      2.52156      111.893 
0.00129770    0.0998015     -90.0000 
9.72068e-05     0.528183      114.599 
0.000328069      2.95451      113.961 
0.000142438     0.635505      77.2437 
4.77550e-05      2.51408      111.465 
9.17149e-05      2.85352      116.201 
0.000138936      2.48853      111.195 
9.21919e-05     0.354273      106.362 
0.000223711     0.599425      115.667 
0.000390912     0.936453      109.960 
0.000345031     0.640096      75.5402 
0.000219536      2.48155      110.775 
0.000630284      2.96521      113.458 
0.000124748      2.86253      116.565 
7.90335e-05     0.334882      107.339 
0.000243723     0.625863      116.565 
8.37862e-05      2.45544      110.501 
0.000157186     0.310708      104.976 
0.000277304      2.44842      110.057 
4.04017e-05     0.954815      109.560 
0.000302247     0.961787      110.697 
0.000712096     0.645453      73.7984 
3.87494e-05      2.87130      116.913 
0.000109916     0.653108      117.360 
3.79296e-05      2.63874      117.542 
0.000145226     0.608475      117.387 
0.000147400      2.41594      109.335 
0.000108135      2.61209      117.345 
3.64188e-05      2.88053      117.273 
0.000270289      2.40931      108.881 
0.000302217     0.980766      110.279 
3.48269e-05     0.420241      115.375 
0.000524354      2.98312      113.308 
0.000168981      2.05568      107.549 
0.000132465      2.58514      117.168 
0.000161652     0.635182      118.200 
6.63404e-05      2.90717      117.451 
6.69148e-05     0.447333      116.608 
0.000256097     0.101837      78.5245 
9.67476e-05      2.04988      107.029 
6.43921e-05     0.429314      117.819 
0.000261954     0.632861      71.5436 
0.000121664      2.54875      116.565 
0.000153963      2.03052      107.196 
6.18628e-05      2.93415      117.607 
3.13810e-05     0.304558      66.7829 
0.000240221     0.987971      111.381 
0.000179175      2.40307      108.441 
3.08078e-05     0.412159      119.085 
3.04836e-05     0.313099      63.3735 
3.04027e-05     0.483985      119.745 
8.56553e-05     0.680116      118.035 
8.80421e-05     0.438758      120.073 
0.000487118      2.02462      106.648 
2.96202e-05      2.84801      119.449 
5.81850e-05     0.322315      60.2717 
5.74735e-05      2.52259      116.367 
2.87694e-05      2.94360      117.956 
0.000135675     0.662301      118.859 
5.61767e-05     0.421988      121.401 
0.000458877      1.00686      110.961 
2.80148e-05      2.85765      119.790 
0.000161152      2.39674      107.981 
0.000107625     0.332828      57.2415 
5.42676e-05      2.42145      120.793 
5.44344e-05      2.96151      117.773 
0.000202139     0.432889      123.690 
0.000103463      2.51366      115.953 
2.69015e-05     0.449253      122.310 
5.31277e-05      2.97516      112.950 
7.69004e-05      2.86777      120.141 
0.000414218      2.99383      112.799 
0.000145478      2.34104      123.150 
2.59084e-05      2.97100      118.118 
0.000187675     0.344213      54.4042 
9.78709e-05      2.39079      107.536 
9.35053e-05     0.651397      72.0869 
0.000108932     0.706913      118.742 
4.80904e-05      2.98823      117.942 
0.000335546      2.00017      106.252 
0.000130768     0.689870      119.521 
2.40744e-05      2.50486      115.536 
6.97790e-05      2.89548      120.286 
0.000131751      2.47819      115.331 
0.000236059     0.444008      125.785 
0.000130000      2.38476      107.072 
2.28415e-05      2.99742      118.272 
0.000109981      1.01401      111.990 
6.39311e-05      2.90537      120.619 
0.000353087     0.141777     -98.2159 
0.000190714      2.33002      122.733 
0.000117109      2.37889      106.606 
6.28967e-05      3.01528      118.089 
0.000454917      4.37458      117.501 
0.000177885      1.02511      110.571 
8.11316e-05     0.355922      51.8496 
0.000193125      1.99480      105.714 
7.44599e-05      1.03212      111.585 
5.90865e-05      2.37339      106.154 
7.55547e-05      2.91574      120.961 
0.000201608      2.98604      112.440 
5.71192e-05      3.02487      118.428 
9.19984e-05      2.46959      114.906 
0.000177403     0.456152      127.850 
0.000170619     0.716875      120.161 
0.000154270     0.353651      47.2356 
3.76250e-05      2.36783      105.684 
5.43910e-05      2.33853      104.875 
5.37204e-05      1.04767      103.250 
0.000119108      3.05168      118.588 
1.80265e-05      1.97530      105.874 
0.000370935      1.96986      105.307 
3.38217e-05     0.427737      127.372 
6.89057e-05      2.33341      104.394 
0.000178161     0.164706     -103.973 
0.000184937      1.06302      101.937 
0.000123290    0.0848966      45.0000 
0.000106259      2.92621      121.301 
7.97212e-05      1.03975      112.623 
6.42374e-05      2.46112      114.479 
6.50665e-05      2.32846      103.911 
4.66967e-05     0.734463      119.367 
9.89909e-05      2.97864      112.094 
0.000168601      3.16940      109.919 
1.59910e-05      2.31913      122.312 
0.000320736     0.440329      129.468 
7.65518e-05      2.29498      102.578 
1.55597e-05      3.06107      118.909 
0.000127901      2.30203      122.581 
0.000279106      4.39413      111.078 
7.16817e-05      3.07882      118.726 
4.45500e-05     0.189835     -108.435 
7.21812e-05      4.40125      117.618 
1.49139e-05      2.43462      114.258 
5.78912e-05      2.29081      102.101 
5.61840e-05      1.04771      113.646 
0.000181963     0.744225      120.676 
4.32081e-05     0.215843     -111.838 
4.19542e-05      2.42636      113.822 
0.000207742     0.241454     -114.414 
8.15133e-05      2.28665      101.605 
0.000223142      3.16281      109.587 
9.85957e-05     0.367178      45.0000 
9.03131e-05     0.659734      75.9796 
7.83666e-05      4.41032      117.843 
0.000110614      3.08861      119.056 
8.23942e-05      2.93639      121.627 
6.32663e-05      1.05916      100.904 
3.78399e-05      2.41825      113.383 
7.38292e-05      1.05568      114.616 
0.000341048      1.94502      104.889 
6.33333e-05      2.28266      101.107 
0.000384813      1.26140      64.6392 
0.000104779      2.29158      122.170 
0.000267308      4.41304      110.984 
8.16185e-05      4.41982      118.075 
4.76902e-05      2.27898      100.625 
7.68452e-05      1.26769      96.3552 
0.000203213     0.268467     -116.565 
0.000128382     0.655281      77.6349 
4.52314e-05      2.27533      100.124 
1.14711e-05      2.41057      112.957 
1.14020e-05      1.03927      101.115 
0.000152092     0.754763      121.999 
9.85696e-05      2.38473      112.692 
5.33738e-05      1.06428      115.608 
0.000699417     0.700404      178.342 
4.20444e-05      3.11617      119.201 
7.35591e-05      2.27186      99.6210 
7.05662e-05      1.03556      100.015 
2.14296e-05      4.42939      118.306 
2.13098e-05      3.18846      109.795 
0.000487131     0.621223      14.9091 
1.98011e-05      2.97108      111.732 
6.94400e-05      4.45649      118.403 
3.04109e-05      1.94010      104.332 
0.000113378      3.18190      109.465 
2.00352e-05      2.28086      121.740 
0.000335727      2.26868      99.1352 
9.89593e-06      1.07320      116.583 
2.70271e-05      4.38688      110.831 
9.82420e-06      3.12573      119.513 
4.65557e-05      1.10008      117.019 
5.36762e-05      1.24365      94.6029 
4.61384e-05      3.15270      119.659 
2.77010e-05      2.26429      121.999 
3.65471e-05     0.411820      129.084 
0.000281471     0.278118     -120.301 
5.35706e-05      4.46616      118.632 
2.66052e-05      4.28675      114.533 
9.15607e-06     0.327950      52.3435 
9.07221e-06      4.40582      110.738 
0.000105689      1.01296      99.0785 
2.67807e-05      4.50964      109.156 
8.97755e-06      3.42209      113.411 
4.12152e-05      2.90892      121.509 
8.73343e-05     0.765692      123.285 
0.000184347      3.45622      113.899 
5.85386e-05      1.10943      117.952 
6.48328e-05      1.91624      103.889 
4.15565e-05      2.96364      111.368 
0.000404237      4.52245      108.838 
7.66697e-05      2.25401      121.579 
8.52468e-05      2.35087      111.988 
0.000180507     0.453478      131.445 
8.39849e-06      3.18034      119.795 
6.29102e-05      4.47591      118.860 
7.09015e-05      4.27838      114.286 
1.62111e-05      3.17521      109.120 
8.08142e-06      3.19008      120.099 
7.91548e-06     0.312731      50.1592 
2.30671e-05      1.22161      92.8167 
5.06032e-05     0.671167      79.6952 
0.000273813      1.13685      118.375 
9.44769e-05      1.27974      65.0278 
3.71498e-05      3.14319      108.556 
2.24200e-05      3.21778      120.230 
2.13222e-05      2.95659      111.016 
0.000256513      1.81356      96.9633 
4.02488e-05      2.88106      121.376 
7.89393e-05     0.782708      122.471 
1.42650e-05     0.300155      53.1301 
4.08288e-05      1.20004      90.9674 
3.46290e-05      1.95032      105.464 
6.02482e-05      4.48536      119.078 
0.000214549      1.44176      66.2767 
1.32291e-05      3.13680      108.205 
6.77544e-05      2.32523      111.705 
1.32850e-05      3.11197      107.963 
6.70328e-06      3.25475      120.662 
9.47653e-05      2.92290      106.695 
3.98630e-05     0.288454      56.3513 
0.000206783      3.44806      113.592 
3.70653e-05      1.95582      106.036 
4.76138e-05     0.684575      83.2645 
0.000160298      1.26988      63.8438 
8.53339e-05      2.24347      121.138 
2.39090e-05      3.28252      120.786 
1.25517e-05     0.288454     -123.649 
1.20042e-05      2.34905      105.812 
5.89988e-05      2.26555      98.6293 
0.000126921     0.295127     -118.390 
8.39109e-05      1.18053      89.0166 
0.000112827      4.31361      114.666 
1.76067e-05      3.10601      107.621 
4.49578e-05      4.51292      119.178 
4.29771e-05      2.85387      121.232 
3.82994e-05      1.98655      106.977 
7.05381e-05     0.776571      124.489 
2.09952e-05      1.01006      97.9856 
6.12373e-05      1.11907      118.868 
1.59389e-05      3.13053      107.853 
4.24493e-05      2.28869      99.0547 
1.56023e-05     0.701240      86.7487 
2.46265e-05      3.32037      121.197 
7.77788e-05      2.29894      111.423 
6.80649e-05      1.99256      107.534 
6.52166e-05      4.52246      119.393 
0.000112740      2.28558      98.5531 
5.00503e-06     0.910591      98.8646 
1.98821e-05      2.34361      105.336 
4.08968e-05      3.09993      107.264 
1.38963e-05     0.740159      91.5686 
0.000188368     0.304887     -121.617 
3.09391e-05      3.48266      114.058 
3.78488e-05     0.761182      92.9950 
4.92003e-05     0.278118      59.6991 
5.90619e-05      2.82643      121.107 
4.06901e-05      3.34756      121.321 
2.02656e-05     0.806114      97.1118 
6.45323e-05      2.23306      120.693 
5.31631e-05     0.788220      125.703 
1.90831e-05      1.39677      103.230 
3.67628e-05      4.54092      108.758 
2.21274e-05      4.37678      120.782 
4.29742e-05      3.09398      106.906 
7.28124e-05     0.466621      133.241 
5.86785e-05      1.99852      108.068 
7.85713e-05      4.53444      108.516 
7.81447e-05     0.720656      178.389 
3.04864e-05      1.18103      88.0702 
3.70476e-05      3.99848      109.880 
2.99313e-05     0.783776      95.8798 
5.64837e-05      2.28266      98.0502 
4.21512e-05     0.616492      13.1567 
1.95062e-05      4.32179      114.901 
1.91612e-05      3.47475      113.764 
1.29237e-05      4.53244      119.617 
1.95919e-05      1.27894      63.0290 
3.41749e-06     0.804760      124.861 
6.46172e-06     0.141777     -81.7841 
9.40528e-06      1.40155      104.036 
1.24559e-05      2.79863      120.966 
9.44234e-06     0.816509      126.027 
9.19381e-06      3.03810      106.045 
-1.21355e-05     0.423858      160.667 
-3.02851e-05     0.404795      159.717 
3.06169e-06      2.94478      111.511 
6.07192e-06      3.35774      121.605 
5.99697e-06      4.35732      115.272 
2.97116e-06      3.38562      121.717 
0.000599080      9.93442      13.9785 
-0.000662810      10.0426      46.1292 
-0.000324897      6.85123     -107.326 
-0.000148175      9.59350      138.634 
0.000452307      8.12836     -130.507 
-0.000357561      1.85802     -104.334 
0.000192908      9.95335      13.9514 
0.000398605      9.10694     -77.1844 
-0.000294769      9.43082     -22.7047 
-0.000168204      9.81202     -17.0686 
0.000310721      6.62390      83.4104 
-0.000364986      12.9438      48.0054 
0.000297183      2.96222     -170.287 
9.04244e-05      4.78801      55.3809 
-0.000115655      10.0622     -131.293 
-4.64441e-05      12.5947     -140.801 
-9.03375e-05      9.79337     -17.1021 
-0.000363225      14.4389     -134.832 
-0.000442468      10.0488     -131.206 
0.000214627      9.77963      149.661 
-8.82260e-05      9.55027      138.568 
0.000125627      10.1993      21.0272 
-0.000206604      12.1059     -147.412 
-0.000127147      7.48082     0.919596 
0.000540782      9.75972      3.64119 
0.000162235      5.67972      79.2408 
-8.69807e-05      12.6098     -140.857 
-0.000165163      11.3589      57.8775 
0.000346578      10.6703     -141.926 
-0.000237386      11.0758      46.2435 
0.000125411      11.4103      38.7369 
4.31437e-05      10.6863     -141.993 
-0.000117273      9.74868     -17.0583 
4.22880e-05      6.58490      152.109 
0.000225700      12.4443     -41.2204 
-8.25933e-05      10.6566     -42.7942 
0.000265353      10.6976      17.1804 
0.000194334      12.1509     -128.115 
0.000185061      10.2295      20.8453 
-4.11920e-05      7.96121      25.9226 
-0.000223647      9.44965     -61.7011 
0.000188630      9.79331      143.974 
0.000117248      6.62617      83.2428 
4.01808e-05      7.08543     -173.518 
-3.98000e-05      11.3550      58.1018 
-0.000183094      9.89629     -168.577 
0.000250472      6.67215     -41.7176 
-7.77504e-05      10.6852     -42.8001 
-0.000145323      7.94299      25.9865 
-0.000148621      4.52016     -61.1671 
0.000111688      5.72913      3.19856 
-0.000185216      3.31089      79.9100 
-0.000146189      8.45563     -28.0797 
0.000147943      8.91264      48.5463 
-0.000181324      12.0274      46.8885 
0.000215284      9.76215      149.601 
-0.000146215      5.36832     -52.8738 
-3.87429e-05      8.33886      101.203 
0.000179150      7.55771     -106.135 
0.000214791      9.10247     -77.3088 
-0.000144544      8.77468     -156.065 
-0.000178659      9.35963      158.699 
-3.77127e-05      8.34282      101.339 
0.000140994      8.14153     -130.616 
0.000105379      5.79906     -44.1612 
0.000175724      6.61096      82.8734 
7.25411e-05      9.04726      69.9629 
0.000210875      11.1798     -39.5559 
-6.97717e-05      1.86314     -104.937 
-0.000107569      8.31899      101.230 
0.000106395      5.03666      67.0984 
-0.000105056      10.7001     -42.7264 
-3.65803e-05      7.48052     0.764435 
-7.14348e-05      7.32005     -89.8414 
-0.000104822      12.1229     -147.464 
-0.000104691      8.27376     -134.317 
0.000138773      5.56579      125.346 
-7.12141e-05      9.12303      44.2002 
0.000137892      5.33891      156.606 
-3.55690e-05      6.84387     -107.694 
-0.000109639      12.9572      130.994 
-0.000103585      9.96713     -11.6932 
-0.000101848      8.32295      101.367 
0.000136055      1.21628     -36.3184 
-0.000102394      4.93448      160.094 
0.000102762      11.0867     -30.2182 
-6.81206e-05      9.44951     -22.6573 
-3.46496e-05      11.7543     -39.2693 
6.79603e-05      5.23281      135.000 
3.44163e-05      12.1629     -128.188 
3.42301e-05      5.66814      78.8091 
-3.40621e-05      5.06931      103.927 
3.40113e-05      12.4705     -48.6422 
-3.40171e-05      11.6130     -131.928 
-3.38952e-05      8.64256     -55.9429 
-3.38836e-05      5.70458      14.6212 
6.66500e-05      8.26182      171.928 
-6.65808e-05      9.10768      44.4659 
-3.32125e-05      9.76897     -27.5630 
-7.82298e-05      12.2254      128.558 
3.29122e-05      3.74171     -58.7742 
3.28330e-05      12.4589     -41.1613 
-0.000113294      11.1987      129.347 
-0.000322553      9.79446      42.6838 
-0.000202352      9.26571      43.6875 
-3.72804e-05      11.2324      129.073 
-0.000102741      11.2349      128.930 
-9.41343e-05      8.95966      32.6972 
-0.000103898      11.1157      130.916 
-8.95114e-05      11.2506      128.865 
0.000117410      7.40789      107.113 
-0.000151914      11.0877      130.903 
0.000181174      13.4373      43.9140 
-0.000153013      9.20873      34.3816 
-8.40090e-05      11.6751      132.849 
