! Center RA: 12 21 31.69052,  Dec: +28 13 58.50019 (2000.0)
! Established model.
! Flux (Jy) Radius (mas)  Theta (deg)  Major FWHM (mas)  Axial ratio   Phi (deg) T \
! Freq (Hz)     SpecIndex
  0.112785      0.00000      0.00000 
 0.0311023    0.0286526     -135.000 
0.00967800    0.0202604     -90.0000 
0.00570226     0.141777      98.2159 
 0.0108404     0.161111      97.2243 
0.00280151    0.0446338     -116.996 
0.00270448    0.0397705     -90.0000 
0.00132689     0.181229      96.4188 
0.00268811     0.145849      105.824 
0.00146544    0.0202604      180.000 
0.00386989     0.164706      103.973 
0.00252767     0.184432      102.453 
0.000731575     0.260038      112.569 
0.00133590     0.286050      114.817 
0.000697166     0.121759      99.5784 
0.00175177     0.313099      116.626 
0.00185494    0.0600310     -90.0000 
0.00150407     0.322315      119.728 
0.000259231    0.0828082     -104.162 
0.00237865    0.0802914     -90.0000 
0.00251987     0.340058      118.035 
0.00319144     0.101837     -101.476 
0.00207725     0.350038      120.964 
0.00188225     0.885454      115.392 
0.000329065     0.140322      90.0000 
0.000603495     0.197181      114.029 
0.000784747     0.189835      108.435 
0.000651124     0.626742      106.699 
0.00125415     0.170734      110.586 
0.00139528     0.645453      106.202 
0.000150340     0.152624      113.162 
7.42759e-05    0.0397705      180.000 
0.000285751    0.0446338     -153.004 
0.000810308     0.404832      122.895 
0.000400159    0.0562440     -135.000 
0.000655216    0.0720098     -123.524 
0.000815368     0.850533      113.557 
0.000667616     0.640096      104.460 
0.000614244    0.0896014     -116.350 
0.000813580     0.416183      125.237 
0.00132198     0.869143      113.023 
0.000264524     0.107434     -111.727 
0.000336046     0.399806      126.913 
8.62897e-05    0.0286526      135.000 
0.000750262     0.655281      102.365 
8.40945e-05    0.0446338      116.996 
8.28475e-05     0.126477     -108.327 
0.000340400     0.170734     -110.586 
0.000116116     0.204262      101.227 
0.000221451    0.0397705      90.0000 
3.88763e-05    0.0600310      90.0000 
0.000581202     0.411820      129.084 
0.000690496      1.18945      106.606 
3.58147e-05     0.201375      95.7743 
0.000385098     0.858831      114.796 
0.000134546     0.189835     -108.435 
0.000163065     0.220795      95.2649 
0.000479319    0.0202604      90.0000 
3.20539e-05     0.215843     -111.838 
0.000208881     0.234065     -110.062 
5.88393e-05     0.240977      94.8229 
0.000547798     0.671167      100.305 
0.000184457     0.240124      90.0000 
0.000374437     0.867194      115.966 
0.000209302     0.253192     -108.489 
0.000418889     0.424884      131.205 
0.000252287      1.20887      106.331 
0.00128462      1.38775     -164.957 
0.000377923    0.0446338      63.0042 
0.000210672     0.271765     -107.184 
0.000354728     0.260423      85.5380 
0.000133325     0.297155     -109.625 
0.000174536      1.22833      106.066 
0.000202091      1.04433      106.703 
0.000147014     0.495028     -104.036 
0.000215473     0.858942      117.752 
0.000367084      1.24709      105.818 
0.000285199      1.67012      108.875 
9.20062e-05      1.06303      106.401 
0.000255663     0.513977     -103.509 
5.72424e-05      2.18988      73.5584 
0.000226757     0.438496      133.197 
0.000158490    0.0286526      45.0000 
0.000816237      2.19570      73.0513 
0.000285573     0.687137      98.3513 
1.81762e-05      1.06870      107.404 
0.000103686     0.993009      64.9648 
0.000344682     0.262662      81.2912 
0.000399843      1.68859      108.660 
6.67952e-05     0.868561      118.934 
6.25889e-05      1.19539      107.536 
0.000208933     0.384412     -171.016 
0.000394461     0.538618     -105.101 
0.000278536     0.966811      65.5634 
0.000257902    0.0562440      45.0000 
0.000215262     0.860688      120.724 
0.000259552      1.69493      109.285 
0.000174179      1.40660     -165.163 
8.52588e-05     0.407936     -168.649 
6.04545e-05      1.21473      107.248 
-0.000181056      1.90140      112.263 
2.41118e-05     0.266484     -103.019 
2.39098e-05     0.452074      135.000 
4.77765e-05     0.286260      77.8948 
-0.00152316      6.70646     -51.6606 
0.000319288      8.42397      53.5925 
-0.000577522      12.1268     -125.602 
0.000618092      8.39669      53.6206 
-0.000574280      11.4484      37.1899 
0.000820987      11.0882     -127.303 
0.000478418      9.18063      57.0022 
0.000609147      13.3207      132.505 
0.000307410      8.21817      58.9429 
0.000187923      6.88804      66.5629 
-0.000402354      4.54249      60.1612 
-0.000559498      5.92685     -169.104 
-0.000380279      5.90796     -127.299 
0.000110388      9.20866      56.9652 
-0.000419976      8.51606     -60.6070 
0.000350207      13.2658      44.3904 
-0.000480343      6.93227     -143.331 
-0.000570989      8.48202      84.3187 
-0.000526538      10.8111     -123.457 
-0.000320519      13.0365     -140.229 
-0.000523645      10.2395      61.2806 
0.000114836      6.86239      66.6476 
0.000557792      9.68672     -21.0563 
-0.000263870      4.08979      69.0810 
-0.000262222      3.92944      9.07558 
-0.000155894      12.1434     -47.2688 
0.000164399      10.5302     -142.019 
0.000355836      8.22864      58.8221 
0.000348677      9.81791      37.9656 
0.000108685      9.66013     -139.451 
-0.000251746      4.41259      134.628 
-0.000156913      7.32900     -133.233 
0.000543751      13.2945      44.3917 
-0.000150086      11.8368     -134.795 
0.000104310      7.58452      36.2032 
0.000247787      6.87015      66.4982 
-5.43155e-05      9.16758      43.4113 
0.000396581      10.1354      130.039 
0.000154400      8.66059     -90.5312 
0.000196957      6.56418      60.6248 
-0.000291601      9.21043      43.3263 
-0.000150879      4.65768     -137.605 
-0.000198247      8.54172     -116.263 
5.22109e-05      7.83122      156.837 
5.19045e-05      9.07692      155.808 
0.000101708      10.2219      178.990 
0.000242689      8.33716      62.5770 
-0.000195849      12.6606     -143.673 
9.55107e-05      9.05710      109.077 
-0.000147730      12.3239     -133.226 
-0.000144276      10.0073      104.229 
-9.76161e-05      9.02392     -69.6347 
-0.000189747      7.98963     -109.750 
5.02504e-05      9.06895      155.921 
5.02256e-05      8.69335      75.0689 
9.65559e-05      9.67496     -139.526 
0.000188310      11.2018     -135.866 
-9.76527e-05      4.09680      68.8261 
0.000282853      11.6737      46.8728 
-0.000142659      10.3038     -26.5147 
-0.000188875      10.6350     -147.207 
4.94052e-05      7.84192      157.032 
-0.000406448      10.0275     -119.120 
4.92889e-05      8.14573     -177.888 
9.52666e-05      7.93360      45.0996 
0.000140764      8.65769      149.764 
0.000185976      11.1005     -127.386 
-4.85504e-05      3.95194      9.32103 
-9.48220e-05      1.82164     -160.759 
4.81472e-05      6.39964      110.868 
9.45971e-05      8.67506     -174.844 
9.36316e-05      5.64575     -171.239 
9.25497e-05      9.08745      155.973 
4.73673e-05     0.592344     -101.694 
-9.24943e-05      3.10145      141.286 
9.23589e-05      8.81377     -172.569 
9.13369e-05      8.66929      75.1651 
9.12828e-05      7.55665      36.1746 
4.66419e-05      8.66079     -90.6603 
9.06634e-05      9.03794      102.004 
-9.11873e-05      12.2958     -133.220 
-9.02476e-05      11.9893      142.249 
-8.98291e-05      13.0651     -140.217 
4.58301e-05      9.24068      13.6447 
9.02550e-05      8.69524     -174.856 
-9.00951e-05      12.6722     -143.602 
4.54678e-05      4.02481      177.147 
-4.53065e-05      8.58834     -126.763 
-4.52486e-05      11.2854      134.857 
4.51967e-05      10.7443      25.4680 
4.50389e-05      11.0964     -148.489 
4.49595e-05      12.7004      52.6805 
-4.47731e-05      7.34289     -133.348 
4.42920e-05      7.96172      45.1031 
-4.42168e-05      7.23976     -179.840 
4.41893e-05      8.34273     -120.066 
4.41628e-05      6.92587     -94.9724 
-0.000703090      10.9060     -133.885 
0.000347271      9.64919     -139.706 
0.000909808      10.2295     -155.390 
-0.000399993      11.8512     -134.726 
-0.000188801      11.4826     -131.044 
0.000124152      2.32029     -90.5003 
0.000362584      9.67726     -139.696 
-0.000113734      8.72938      130.073 
0.000447681      2.32020     -90.0000 
-0.000449797      10.8919     -133.808 
-0.000262970      6.16641      135.528 
-0.000369480      8.55989     -116.203 
-0.000315080      11.4959     -131.120 
-0.000339957      4.50025      179.494 
-5.67486e-05      8.59940      130.286 
-0.000157952      8.37058      78.4211 
0.000376950      9.10663     -85.5908 
-0.000258985      10.7190      32.5041 
0.000151139      9.31858     -33.6210 
0.000193413      8.37246     -37.5241 
0.000387446      11.7603     -127.257 
-5.28941e-05      4.50047      179.236 
5.29439e-05      4.57081     -49.9680 
-0.000227815      5.86194     -121.468 
0.000139125      9.10079     -37.4992 
-8.01649e-05      8.82160      50.4291 
-5.07428e-05      8.74490      129.987 
5.04421e-05      4.58166     -49.4303 
-0.000364270      8.96307      137.803 
-0.000185134      8.86199      67.7175 
-0.000363932      8.57127     -60.5040 
-4.97737e-05      9.82082     -179.418 
-0.000182948      3.57864     -135.680 
0.000140440      4.63993     -43.5977 
4.88664e-05      8.95565     -157.272 
-0.000124768      8.85012      50.4115 
-0.000264768      14.1456      46.2617 
9.11732e-05      4.56899     -49.6161 
9.13846e-05      8.36878     -37.7186 
-0.000177833      6.64000      145.931 
-9.13595e-05      9.78012     -179.530 
-0.000413906      8.84325      67.6677 
-9.14901e-05      8.55130     -116.086 
-0.000321563      8.11081     -22.0111 
0.000131579      7.32631      96.4277 
8.52418e-05      8.70961      149.962 
-0.000169116      10.7361      32.4460 
0.000123713      8.98148     -157.201 
0.000217520      11.9526     -37.5239 
-0.000284599      11.2326      130.668 
-8.79753e-05      9.96410      104.648 
-8.71905e-05      4.18445      2.74439 
-0.000337481      11.5234     -131.129 
-4.43373e-05      9.88860      96.7373 
-4.40726e-05      5.51873      130.445 
-4.40419e-05      8.72670     -103.653 
-0.000361490      8.52420     -116.024 
-8.14319e-05      11.8798     -134.726 
-8.36465e-05      6.40455     -69.5288 
0.000184370      8.69208      149.896 
-0.000118901      4.39820      134.813 
-0.000158111      5.82684     -8.68838 
-0.000117514      6.18034      135.654 
-0.000124354      9.76047     -179.648 
-4.26819e-05      8.72212     -103.528 
-0.000186822      6.50347     -22.2237 
-0.000118430      5.50333      130.582 
-0.000217267      9.88624      96.6207 
0.000150445      4.28537     -45.5675 
-7.95806e-05      10.1229     -98.1782 
0.000113213      5.80304      55.1057 
-0.000226646      10.3238      77.0123 
-0.000335120      8.74109     -103.498 
-0.000120517      9.96924      104.761 
-0.000179747      10.3832     -99.5345 
-4.12030e-05      7.56885     -16.4245 
4.11770e-05      9.67488     -32.9357 
-0.000151286      3.60623     -135.674 
-0.000219500      6.14542     -144.136 
-4.08597e-05      9.49239     -131.584 
7.96961e-05      9.69272     -139.773 
-0.000154673      4.18543      3.01117 
-0.000116113      6.63463      145.688 
-0.000383501      11.2194      130.590 
-0.000143008      9.89251      31.4378 
0.000144232      5.68027      52.7305 
0.000113181      11.9954      46.2166 
3.97806e-05      4.58387     -49.7741 
-0.000148462      4.36267      31.5029 
-7.76138e-05      7.58829     -16.3812 
-3.94709e-05      11.6264     -51.9859 
-0.000138085      13.2654     -134.633 
-3.93142e-05      10.5296     -147.095 
-7.70505e-05      12.4964     -143.460 
-7.52557e-05      8.99606      28.8462 
0.000248622      12.3611      137.820 
-3.88567e-05      9.08004      89.4933 
3.87968e-05      9.80388      72.3056 
0.000104595      7.32852      96.5793 
0.000110829      13.0880      40.0415 
-0.000214374      10.6504     -148.906 
0.000155515      7.06186      33.3304 
-0.000299513      9.52353     -40.1420 
-3.81925e-05      5.96624      153.947 
-0.000177851      9.71984     -179.766 
0.000281520      10.9029      63.7647 
-0.000177775      8.39362      78.3174 
-0.000135540      6.31390      73.0575 
3.74540e-05      7.79209      18.7159 
0.000104799      9.77865      72.3784 
3.72358e-05      9.68550     -33.0326 
-0.000138643      10.2573      61.3350 
-0.000129024      11.2401     -143.027 
3.69871e-05      10.1458      140.600 
0.000291077      11.7290      46.7291 
-0.000213014      9.98298      104.620 
0.000103279      9.72070     -139.756 
-7.21214e-05      12.5121     -143.514 
-3.66529e-05      7.62079     -16.1508 
-0.000100054      9.87243     -11.3313 
3.63597e-05      7.47222      34.1991 
6.86246e-05      6.59939      111.512 
6.85014e-05      7.55018      117.449 
3.63461e-05      4.65408     -43.4321 
0.000229164      10.5492      115.012 
0.000135156      9.88071     -76.3025 
-3.58468e-05      8.56432     -127.216 
0.000554367      10.1302      140.528 
-9.62902e-05      10.8130     -69.9894 
-6.72016e-05      3.89511      41.8765 
-3.55228e-05      4.47999      179.491 
3.52914e-05      7.84254      18.4349 
0.000302498      11.7485     -127.182 
0.000323324      9.02565      101.631 
-0.000163121      6.65137      145.786 
-6.60626e-05      9.10049      89.3716 
-0.000134493      4.16707      3.30345 
0.000190611      10.4815      112.552 
6.57025e-05      6.68142     -178.797 
-0.000247739      7.64026     -16.1085 
9.95542e-05      10.0010      146.501 
0.000324308      8.32288     -119.829 
0.000128084      8.68540      149.715 
0.000167368      2.30003     -89.4953 
-9.54354e-05      5.89961     -4.66923 
3.43534e-05      10.7711      149.913 
9.85891e-05      13.1166      40.0523 
-0.000157983      12.5241     -143.439 
-0.000178949      7.04063     -147.531 
9.52169e-05      6.85930     -104.521 
-3.39704e-05      6.70304      54.8404 
-3.37791e-05      13.2662     -135.733 
-6.48590e-05      10.0999     -98.0807 
3.35605e-05      7.86176      18.3883 
-0.000118671      11.8941     -134.796 
-9.08806e-05      5.49800     -138.541 
3.33080e-05      7.44407      34.1578 
0.000366217      12.0845      57.5711 
0.000432917      8.95378      25.8199 
6.42176e-05      13.6647      47.9068 
-0.000197890      6.13247     -77.1898 
-0.000298295      8.76079     -103.467 
-0.000191338      8.94807      137.716 
-0.000324339      8.10036     -22.1957 
-0.000195680      11.5367     -131.205 
-0.000144260      10.1868      75.9095 
0.000447526      14.1310     -133.795 
0.000272517      13.6361      47.9130 
-0.000138232      12.5404     -143.494 
-3.22230e-05      8.57987     -127.137 
-6.13130e-05      9.86082     -179.302 
3.19769e-05      9.68091     -32.7699 
6.18715e-05      7.48061      106.306 
-0.000388210      13.2807     -135.794 
-0.000193203      8.95145      28.8554 
6.04051e-05      9.05850      109.477 
-0.000164979      10.4042     -161.741 
0.000239971      10.9211      63.8117 
-3.15496e-05      8.12421     -16.7378 
3.15060e-05      7.41635      34.1210 
-0.000254710      8.90541     -161.402 
-0.000325443      10.3184      97.9085 
0.000113444      11.9491     -37.6550 
0.000192786      12.2277     -137.121 
-0.000117834      4.16824      3.57119 
3.10405e-05      7.38032     -127.182 
5.83297e-05      9.31359     -33.7912 
6.07965e-05      9.87405      118.953 
0.000185370      10.4927      112.411 
5.66957e-05      11.5358     -37.1084 
3.08331e-05      7.88028      18.3435 
-5.69954e-05      6.18062      135.394 
-5.65351e-05      9.74021     -179.647 
0.000392299      12.3460      137.757 
-3.04576e-05      10.2838      61.2918 
0.000536255      13.0532      38.4669 
5.87867e-05      4.92921      117.813 
-3.04185e-05      7.32423      122.171 
-3.03206e-05      4.46035      179.740 
3.02982e-05      7.88887      19.8569 
-8.63116e-05      10.4864     -23.7310 
-8.49409e-05      8.56765     -127.029 
5.86601e-05      9.90040     -76.3303 
0.000134728      10.0241      146.722 
-0.000181766      10.5520     -106.063 
2.96132e-05      12.3217      124.620 
2.95713e-05      10.0375      165.107 
0.000104892      5.50646      87.2975 
0.000153409      8.51961      114.698 
5.62315e-05      7.08888      33.3755 
2.93794e-05      9.70582     -139.682 
-2.92240e-05      9.86504      31.4025 
-2.92065e-05      4.41250      135.000 
-2.90607e-05      4.39053      31.5902 
-2.90259e-05      8.43951     -51.4436 
5.64224e-05      8.40408      53.3204 
0.000157302      7.33087      96.7366 
7.97194e-05      13.1011      40.1094 
2.88658e-05      7.38884      34.0758 
-0.000176774      8.65156     -167.314 
-2.86680e-05      6.71473      54.6990 
-5.43094e-05      11.2680     -143.010 
-5.64004e-05      10.2111     -85.5070 
8.10048e-05      9.98763     -75.7424 
-2.85246e-05      13.2940     -134.634 
-8.16396e-05      6.35825     -21.4021 
-0.000151707      8.65719     -68.5924 
-0.000219459      14.1321      46.3188 
2.83944e-05      4.81487     -33.8164 
0.000319327      9.88388      119.056 
5.50068e-05      7.89951      18.2973 
-0.000101464      9.88401      96.5083 
-0.000107173      13.0140     -133.755 
2.82635e-05      10.9847      142.547 
5.44461e-05      12.2845      38.4548 
2.80210e-05      6.50149     -33.1985 
5.49567e-05      9.74298     -47.9938 
5.36417e-05      7.33971     -127.026 
-0.000318164      7.99538     -109.433 
0.000174574      9.10821     -85.4637 
0.000106011      10.5591      114.866 
0.000212567      8.69498      163.567 
8.85390e-05      9.75393      72.4572 
-0.000100648      9.12303      44.2002 
-2.75853e-05      9.85657     -11.4699 
-2.75705e-05      4.41983     -179.737 
2.75379e-05      7.50006      106.263 
0.000263329      11.6870      46.8030 
-0.000174401      10.3799     -99.4242 
-7.17723e-05      6.62937      145.445 
2.73804e-05      7.97338      3.30725 
-5.34433e-05      9.83626      86.7375 
-0.000394407      13.3543      43.5429 
-0.000169315      9.53845     -40.0664 
7.81931e-05      8.43729     -80.4472 
-7.36909e-05      10.2744      61.3872 
-5.21685e-05      8.09273     -22.0628 
0.000100383      9.05177      109.356 
-0.000460656      10.2127     -85.3937 
5.08013e-05      5.66847      52.8874 
-9.46519e-05      10.7837      39.5054 
9.90712e-05      10.9810      142.399 
5.05854e-05      10.0179      165.077 
2.68043e-05      8.81077     -92.8607 
-2.67479e-05      9.66322      178.460 
2.67160e-05      6.37284      86.4018 
-0.000141712      10.4685     -23.7740 
5.18208e-05      7.36113      34.0384 
-0.000146171      5.83665      101.465 
-0.000347100      10.7482     -44.5474 
0.000149692      4.91979      117.605 
-2.61564e-05      4.73685     -4.84354 
2.61712e-05      9.97301     -75.6009 
-0.000119424      4.16955      3.84906 
-0.000298476      8.54366     -60.5553 
0.000185117      7.95316      3.31567 
7.47106e-05      12.3154      124.411 
-0.000139230      11.2697      57.8316 
-0.000375201      8.78049     -103.437 
2.59875e-05      5.92162      162.911 
4.89183e-05      9.32981     -33.7246 
-2.58392e-05      9.88234      31.3413 
7.31783e-05      7.77837     -61.2616 
0.000163299      10.4893      112.654 
-7.17042e-05      7.67311     -15.8861 
4.80968e-05      12.2686      38.5137 
0.000186928      10.8025     -110.481 
2.53563e-05      8.42034      53.4028 
2.53276e-05      7.49441      106.114 
0.000267053      11.2596     -150.293 
7.93179e-05      11.1892     -155.726 
0.000318177      8.33297     -119.950 
-9.54322e-05      10.3482      41.0808 
4.74786e-05      7.91804      18.2529 
-9.41522e-05      9.83265     -175.334 
-4.84689e-05      4.41978      180.000 
-7.06784e-05      10.8061     -70.0903 
9.70211e-05      10.7867      116.424 
2.47856e-05      4.08477     -139.366 
4.88743e-05      8.36159     -1.09528 
2.46850e-05      9.00016     -157.251 
-0.000345638      9.85574      86.7439 
