! Center RA: 12 21 31.69053,  Dec: +28 13 58.50012 (2000.0)
! Established model.
! Flux (Jy) Radius (mas)  Theta (deg)  Major FWHM (mas)  Axial ratio   Phi (deg) T \
! Freq (Hz)     SpecIndex
 0.0733777      0.00000      0.00000 
 0.0147687    0.0286526     -45.0000 
0.00144260    0.0202604     -90.0000 
 0.0134432    0.0202604      180.000 
0.00669439    0.0286526      135.000 
0.00202654     0.247514      104.036 
0.00128385    0.0446338     -26.9958 
0.00388623     0.223431      100.253 
0.000614960    0.0202604      90.0000 
0.00456822     0.243395      99.4042 
0.000592093    0.0202604      0.00000 
0.00233475    0.0562440      135.000 
0.00219414    0.0720098     -33.5245 
0.00476292     0.227911      105.272 
0.00310641    0.0848966      135.000 
0.000137910    0.0896014     -26.3505 
0.00285039     0.100252     -36.7841 
0.000640433     0.362375      96.3009 
0.000499845     0.145849      15.8239 
0.00216895     0.380236      93.0544 
0.00123885     0.164706      13.9729 
0.00147523     0.100252     -53.2159 
0.000734652     0.100252      143.216 
0.000222495     0.400469      87.1001 
0.000147275     0.369026      102.567 
0.000692558     0.100252      126.784 
9.54093e-05     0.286260      77.8948 
0.000719161    0.0397705     -90.0000 
0.000278737     0.116465      121.027 
0.00162932     0.282706      81.9129 
0.000323585     0.134233      116.565 
0.000473138     0.126477      108.327 
0.00119866    0.0633577     -71.3505 
0.00118980     0.145849      105.824 
0.000629826     0.152624      113.162 
0.00100515    0.0720098     -56.4755 
0.000580264     0.302778      82.4523 
0.000584402     0.967226      97.1305 
0.000325382     0.134233      153.435 
0.000171187     0.306099      78.6901 
0.000992433     0.582160      105.935 
0.000703487     0.456152      127.850 
0.000129855     0.990000      98.1485 
5.42268e-05     0.322129      82.9081 
0.00176597      1.26053      91.8080 
0.000347074     0.379696      90.0000 
0.000902156     0.987333      96.9846 
5.20544e-05     0.444008      125.785 
0.000337270     0.144435      33.7726 
0.000701687    0.0896014     -63.6495 
0.000620195     0.866617      108.843 
0.000474385     0.152624      156.838 
0.000412181     0.161670      29.7779 
8.36933e-05     0.316312      71.6080 
0.000507044      1.84428      99.3665 
0.000449137     0.400469      92.8999 
0.000101861     0.215843      111.838 
0.000395537     0.468857      129.806 
0.000574994     0.885104      108.435 
0.000207305     0.756949      102.190 
0.000140636     0.313099      63.3735 
0.000392360     0.577108      104.072 
0.000179560     0.178866      26.6725 
0.000243774    0.0828082     -75.8378 
0.000103175     0.234065      110.062 
0.000402825     0.985074      95.8148 
0.00118698      1.82181      98.8377 
0.000100054     0.189835      18.4349 
0.00183827      3.26360      87.1929 
0.000420612     0.170734      159.414 
3.27300e-05     0.388092      101.940 
0.000627663      1.24028      91.8376 
0.000466605     0.209153      16.6796 
0.000291660     0.481580      131.589 
0.000483309     0.107434     -68.2729 
3.10091e-05     0.392593      104.727 
0.000142521     0.322315      60.2717 
0.000147289     0.941538      77.7139 
0.000979824      1.84109      98.7444 
0.000198381     0.730308      99.4623 
0.000675433     0.910821      109.241 
0.000174682     0.223834      116.479 
0.000214113     0.945882      76.5591 
0.000155991     0.420217      90.0000 
2.75215e-05     0.398226      107.547 
0.000149740     0.572519      102.105 
0.000161832     0.404795      110.283 
6.92558e-05     0.495261      133.342 
0.000141590     0.332828      57.2415 
0.000149617      6.58977      113.994 
0.000746388     0.480727      135.000 
0.000316120     0.922740      60.0991 
0.000260584     0.961344      77.9708 
0.00126313      6.56334      113.910 
0.000518057      4.46393      92.3122 
4.57213e-05     0.223431      10.2532 
0.000105136      3.24411      87.1760 
0.000150444     0.923634      107.640 
0.000842878      2.16892      67.2231 
0.000430455      1.12476      84.9094 
0.000290929      3.46026      89.3415 
0.000149553     0.568616      100.109 
4.42661e-05     0.243395      9.40424 
0.000230373      3.24517      86.8187 
0.000136003      3.43983      89.6625 
0.000235218     0.101837     -78.5245 
0.000409598     0.655281      77.6349 
8.45394e-05     0.260423      4.46202 
0.000307508     0.233573      120.932 
0.000150462     0.344213      54.4042 
0.000136383      1.01006      97.9856 
0.000117649     0.259634      0.00000 
0.000700337      1.26133      92.7279 
0.000319032      3.65991      101.987 
0.000429369     0.929974      108.830 
3.81299e-05     0.411965      112.829 
0.000130356      4.37806      84.7584 
0.000189882     0.565518      98.1624 
0.000646237     0.912809      61.2016 
8.60149e-05      3.22494      86.7987 
0.000275375      4.92239      99.1134 
0.000561822      4.92696      108.211 
7.36962e-05      4.36053      84.4699 
0.000285863      1.73187      104.042 
0.000292086     0.189835      161.565 
7.23333e-05     0.279894      0.00000 
0.000198302      6.90111      105.806 
0.000136110      4.83592      103.633 
0.000164120      1.01296      99.0785 
8.65548e-05      4.48429      92.5608 
3.46789e-05     0.439727      90.0000 
0.000311192      1.63987      102.688 
0.000366768     0.280627     -4.14019 
0.000529344      4.03251      85.4533 
5.04017e-05      4.36246      84.2149 
0.000384766      4.44824      104.847 
0.000318240     0.126477     -71.6725 
0.000587716      6.88161      105.852 
0.000304981      4.48343      92.3021 
0.000202697     0.355922      51.8496 
0.000174125     0.440193      87.3620 
9.37976e-05      4.37995      84.4945 
9.83002e-05      4.20716      83.4454 
0.000372392      4.20489      83.7197 
0.000213899      4.84074      103.866 
1.55180e-05     0.965599      76.8385 
0.000194953      3.46056      89.0060 
8.15597e-05      1.81881      98.2070 
0.000244026      1.94068      91.7726 
0.000511767      3.67973      101.922 
0.000112810      1.03223      98.9077 
2.75057e-05     0.420241      115.375 
5.80854e-05      4.37374      82.9042 
0.000240561      4.65162      96.6699 
0.000454745      4.37619      82.6508 
0.000180157     0.562998      96.1209 
0.000145801      3.26270      87.5351 
2.65119e-05      3.20471      86.7785 
0.000251300      1.75559      104.505 
0.000285146      4.94166      99.0776 
7.23804e-05      1.00899      103.768 
0.000168641      4.63964      90.0000 
0.000153605      1.10660      83.7714 
0.000283379      1.06954      97.5389 
6.28174e-05      4.99320      110.396 
0.000195662      2.16144      67.6999 
2.51712e-05     0.244605      125.006 
0.000291539      3.28214      87.9036 
0.000217569      4.60423      92.4940 
1.24585e-05     0.178866      153.327 
0.000117429      2.15094      67.0219 
0.000195711      4.86529      104.041 
0.000148429      3.18524      86.7588 
0.000124117     0.368782      49.3734 
0.000284979      4.97421      110.477 
0.000178541     0.282706     -8.08709 
8.44761e-05     0.659734      75.9796 
6.33881e-05     0.228306      127.925 
0.000212452      1.45003      114.456 
0.000150155      1.94016      91.1746 
0.000100175     0.460433      87.4780 
0.000297517      2.11990      63.6708 
0.000189694      1.18179      113.977 
3.05274e-05      4.53850      101.956 
2.18374e-05     0.152624     -66.8384 
0.000173522      4.63969      89.7498 
0.000157033     0.197181     -65.9711 
4.66763e-05      4.40480      104.735 
0.000104634     0.584228      51.9378 
1.02850e-05     0.438632      114.241 
0.000130417      1.07228      98.5724 
0.000195228     0.384386      51.3402 
0.000149451      6.88718      106.014 
3.73444e-05     0.609116      113.217 
9.37814e-06      4.87006      104.263 
9.30896e-06     0.447333      116.608 
6.20183e-05      4.89471      104.435 
4.44155e-05     0.384685     -27.9147 
7.06475e-05      4.39554      82.6833 
2.61830e-05     0.188432      148.019 
9.00868e-06      4.40359      98.0914 
3.46476e-05     0.189835     -71.5651 
1.73579e-05      4.40088      97.8400 
1.73821e-05      3.16392      87.1043 
1.72953e-05     0.917436      110.391 
8.63107e-06      4.92089      107.996 
8.54270e-06      3.73775      101.734 
0.000189253      1.10898      82.7307 
8.53110e-06      3.46097      88.6707 
8.48154e-06      4.05122      85.7511 
0.000748450      8.92735      98.8923 
0.00105297      7.24639      119.607 
0.000149797      7.95496      100.577 
0.000885503      7.32270      114.185 
0.000233718      7.95856      100.716 
0.000377972      7.29868      108.536 
0.000594343      8.90422      98.7836 
0.000147152      7.30355      98.6629 
0.000499668      7.30052      98.5057 
8.05365e-05      7.93939      100.742 
0.000326124      7.99626      99.7903 
0.000267472      7.86052      100.851 
7.99464e-05      7.88042      100.823 
0.000271604      7.30490      108.681 
0.000393348      6.96597      100.923 
5.38369e-05      5.80313      102.744 
0.000237473      5.80747      102.932 
8.29506e-05      7.31862      109.477 
0.000161865      7.86436      100.996 
0.000206154      10.1540      115.366 
0.000363045      10.3316      113.836 
0.000426668      10.1538      111.067 
0.000207939      10.1434      115.240 
0.000273435      10.3082      116.815 
0.000102030      6.97728      100.949 
8.02048e-05      7.30431      98.4656 
4.10620e-05     0.552327      95.2226 
6.04200e-05     0.195517      129.862 
7.99581e-05      2.11328      64.0355 
5.97972e-05      5.79723      102.955 
6.00460e-05      7.24380      119.571 
5.99313e-05      8.90652      98.8790 
1.99732e-05     0.579674      97.4378 
3.95324e-05      7.86952      100.988 
1.99208e-05     0.177222      135.000 
3.93401e-05      1.06046      98.1358 
3.91957e-05      7.31791      114.202 
1.97052e-05     0.604133      114.432 
1.95930e-05      1.11026      82.2313 
1.95767e-05     0.390554      50.2226 
1.94213e-05     0.576991      94.9988 
0.000126108     0.617068      114.882 
0.000144583      10.3126      116.863 
9.28946e-05      3.70288      102.155 
7.38800e-05      7.31362      109.822 
5.54992e-05     0.184676      139.449 
5.51748e-05      10.1722      115.257 
5.50960e-05      8.01623      99.7656 
7.19074e-05      10.1545      111.007 
3.63427e-05     0.561200      94.0638 
0.000141170      3.28294      87.5503 
5.41139e-05      4.22728      83.4767 
7.06789e-05     0.596454      50.4621 
3.59747e-05      1.76077      105.144 
3.51545e-05      10.1558      113.686 
3.60980e-05      1.91764      97.7813 
1.81145e-05      7.94319      100.885 
5.25231e-05      8.90733      98.9124 
1.77654e-05      10.1737      113.642 
1.76557e-05      3.68381      102.219 
5.23583e-05      10.6361      115.746 
1.76181e-05      7.22879      119.687 
0.000523158      8.21931      93.9052 
7.66296e-05      8.19910      93.9149 
5.55408e-05      8.26039      94.0267 
0.000123530      1.89757      97.8641 
6.92027e-05      8.17889      93.9246 
3.50065e-05      10.0985      112.348 
3.48610e-05      8.28348      94.2912 
0.00164942      10.0125      135.000 
-0.00110999      9.93118     -81.4309 
-0.000950007      10.0846     -145.995 
-0.000889052      10.1149     -41.6318 
0.000854707      7.94829     -130.102 
-0.00118543      7.75413     -54.3411 
0.000670329      5.62395     -2.24050 
0.000793494      10.9112     -111.957 
-0.000309373      3.46899      157.273 
0.000649631      9.59265     -130.263 
0.000567875      6.54049      179.652 
0.000618558      6.36040      89.6417 
-0.000229822      9.70211      7.46140 
-0.000560757      9.22565     -69.8361 
0.000485337      10.1533     -117.573 
-0.000611166      10.3472     -71.6373 
-0.000405106      6.07450      124.267 
0.000272765      10.8541     -131.412 
0.000336131      2.99383     -22.7988 
-0.000409966      12.6598      46.0879 
-0.000997718      11.7984     -142.024 
-0.000344290      9.52135     -109.766 
0.000216508      10.4429     -42.9821 
-0.000268807      9.76030      90.1189 
0.000403621      9.85855     -154.529 
-0.000538850      9.68202      7.47697 
0.000397274      5.17286      127.935 
0.000462999      7.33059      161.220 
0.000265195      9.49017      45.7689 
0.000337683      11.0189     -66.6928 
0.000463284      9.16829     -103.369 
-0.000329440      2.86333      12.1021 
-0.000198783      3.48768      157.402 
0.000326316      10.6727     -37.3863 
-0.000331346      8.42426     -141.361 
0.000327237      6.64737     -149.034 
-0.000262962      10.9733      148.338 
-0.000260262      7.12165      125.743 
-6.92015e-05      6.75796     -110.256 
-0.000385689      5.89044     -84.1507 
0.000201239      11.7670     -45.4134 
0.000321619      8.51042      122.718 
0.000320136      10.4287     -43.0552 
0.000318738      11.6387     -56.9933 
-0.000255343      6.75123     -110.101 
-6.64110e-05      10.1019     -41.5491 
0.000315512      9.83641     -39.2230 
-0.000224771      9.08263      109.152 
0.000187449      7.05663      145.274 
-6.57030e-05      3.26270      2.46494 
-0.000247364      13.2389     -45.9806 
-0.000129069      9.52429      10.6468 
-0.000125413      8.28173     -33.5778 
0.000312375      8.29006      51.8594 
-0.000124340      9.91114     -81.4135 
0.000184633      5.48947      22.2668 
0.000185812      9.16784     -87.6264 
0.000184384      11.6928      33.7717 
-0.000185579      11.5021      28.7939 
0.000246143      7.22723     -115.927 
-0.000123934      2.13685      136.893 
-0.000123055      3.46043      40.7792 
-6.30616e-05      10.1165     -41.4758 
0.000123669      11.7528     -45.4837 
0.000244396      2.82812     -135.000 
0.000182003      9.99818      134.918 
-6.25276e-05      12.6739      46.1491 
0.000181774      10.8835     -47.1598 
-6.23117e-05      10.9390      20.8854 
0.000181841      8.30090     -179.171 
6.19507e-05      3.28410      57.1814 
0.000120922      5.08058     -102.505 
-0.000121509      9.54347      10.6252 
0.000120751      8.13939      139.183 
-6.08946e-05      13.6644     -46.1859 
6.08322e-05      5.79190     -145.264 
-6.06829e-05      5.66635     -166.943 
-6.06449e-05      9.15708      138.894 
-6.02905e-05      3.28294      2.44973 
6.02142e-05      14.2849     -134.319 
5.99195e-05      12.5902     -41.9730 
-5.98524e-05      6.67530      118.253 
5.98283e-05      10.1584      7.12449 
-5.96392e-05      6.12449      136.191 
-5.94508e-05      9.20663     -69.7927 
5.94755e-05      8.27757      51.9697 
-5.93696e-05      7.50393     -171.414 
-5.93138e-05      10.9201      20.9233 
5.90382e-05      12.6530     -51.4819 
5.89105e-05      6.02203      128.392 
0.000726775      9.71264     -111.121 
-0.000451284      11.8040     -146.471 
0.000507304      6.83300     -156.363 
-0.00255576      11.2988     -117.746 
-0.000166184      6.50773     -67.2195 
0.000209922      8.28096     -179.029 
-0.000397944      2.18906     -95.2513 
0.000463735      5.70081     -91.0031 
0.000711819      11.1518      57.4499 
0.00108459      11.4308     -63.1675 
-0.000151681      11.1628     -46.6697 
0.000152738      10.2247      52.3883 
-0.000435256      8.16419      104.614 
-0.000102508      6.51890     -67.4466 
-0.000196151      6.36837     -153.513 
0.000239414      2.70462      176.612 
-0.000148261      3.13794     -17.0483 
0.000714460      11.4414     -130.036 
0.000324682      9.70563     -111.013 
5.13221e-05      10.9527      140.410 
-0.00107546      9.67870     -62.6939 
-5.00550e-05      9.82162      89.0676 
0.000338429      11.3680     -61.1798 
-9.43205e-05      10.1861     -100.978 
0.000136159      7.28154      4.40912 
0.000216522      10.9677      140.474 
-0.000261378      11.7146      58.0467 
0.000289068      9.88624      30.2492 
-9.06982e-05      9.43327     -68.2223 
-0.000269085      13.1466      137.033 
-4.87726e-05      6.51116     -67.6112 
-0.000177978      8.14588      171.668 
9.55202e-05      7.39291     -16.1779 
-0.000724688      12.1416      39.1155 
-0.000213072      3.73652     -82.0001 
-0.000534272      11.0331     -130.736 
-0.000646848      9.84083      89.1830 
-0.000140280      11.0388     -64.4575 
0.000131852      10.5709      139.681 
-0.000583770      11.7989     -146.336 
-4.75847e-05      9.81633      73.6708 
-0.000401421      3.71646     -81.9566 
-0.000134971      14.1855      44.3720 
0.000202527      11.6392      135.488 
0.000530491      10.9736      151.241 
-4.70296e-05      9.45961     -68.1539 
-0.000129527      4.87226      83.4025 
-4.65465e-05      6.50347     -67.7763 
4.63756e-05      7.56939     -136.607 
-9.01284e-05      9.78716      177.777 
-8.86650e-05      5.19294      169.122 
-0.000127914      9.94758      148.483 
-4.59755e-05      9.03938      125.271 
0.000164206      10.2366      52.3018 
4.56478e-05      5.54688     -123.976 
8.87782e-05      7.26293      4.58077 
-0.000320934      8.64381     -48.5651 
0.000215058      11.6015      52.1435 
-0.000172262      6.48100     -68.2676 
0.000449257      5.29667     -80.2201 
-0.000233533      9.85843      74.9472 
-8.58033e-05      6.73284     -86.4217 
-0.000162425      4.51253      77.1932 
-0.000107248      8.63362      120.485 
-0.000473713      13.7282     -47.2439 
-4.47079e-05      8.25014      41.0688 
0.000428306      7.37345     -16.2217 
0.000165606      10.0687      57.1627 
0.000182488      8.26145     -179.027 
-8.73715e-05      10.3241      36.4909 
0.000128842      10.7735      140.724 
-0.000332891      9.31784      172.601 
-0.000124775      4.59124     -65.5545 
-0.000183856      5.74653      177.208 
8.64125e-05      12.7218     -39.8960 
0.000275114      8.88472     -36.3027 
0.000268819      7.54074     -136.613 
-8.56303e-05      8.58707      56.4946 
0.000529187      5.55823     -124.149 
-0.000121890      3.16327     -17.2916 
-0.000261759      4.11547     -7.54356 
-0.000734316      11.0475     -64.3626 
-0.00105913      11.3079     -117.834 
-4.35672e-05      5.36001     -151.713 
4.34143e-05      10.1797     -38.3762 
-4.33062e-05      6.35899     -153.275 
0.000126568      11.7263      34.0155 
-0.000186891      9.75195     -129.173 
0.000426435      7.91809     -117.859 
-0.000117701      7.81954     -73.0501 
-4.28546e-05      11.2315     -43.7006 
-4.25564e-05      9.27516      172.689 
4.24790e-05      1.18835     -43.6440 
0.000159381      9.73536     -157.279 
-0.000505712      11.2295      129.218 
4.22196e-05      7.24129     -167.881 
-0.000597544      9.63439      79.7167 
-0.000159044      9.80821      177.663 
-0.000156170      8.49490      69.1732 
-4.17633e-05      8.60588      120.438 
0.000228113      8.24975     -28.0569 
-4.16480e-05      9.17917      135.970 
-0.000192734      10.8487      21.4077 
-0.000118696      9.71908     -118.514 
-4.13893e-05      11.7088      57.9121 
-0.000309381      11.2462     -43.6293 
0.000209415      10.1689     -6.66562 
8.02914e-05      3.73177     -28.4872 
-0.000289655      7.76670     -71.8451 
-4.09512e-05      5.70879      114.857 
-4.08195e-05      6.35073     -153.032 
-0.000115658      1.98190     -92.3218 
4.08250e-05      7.66540     -26.4998 
-4.07668e-05      4.01262      66.5031 
0.000117253      12.7368     -39.8397 
7.97363e-05      9.92665      170.840 
-0.000596117      14.1710      44.4293 
-4.05167e-05      10.6445     -161.598 
-0.000218861      9.49239      78.4538 
-0.000177117      2.20924     -95.2032 
0.000180200      10.2075     -38.3973 
0.000261141      2.68439      176.587 
0.000144355      7.22148     -167.847 
-3.98475e-05      13.7206     -46.1811 
0.000275519      11.7154      33.9364 
0.000678126      11.6175      52.2049 
0.000521794      10.1488     -6.67890 
0.000149520      5.68095     -91.2110 
0.000306716      9.75405     -157.325 
-3.94081e-05      9.21773      139.222 
-7.56259e-05      11.6731      57.4531 
-7.43649e-05      9.24814      37.2678 
-7.34451e-05      6.35995     -152.870 
-3.90863e-05      9.16515      135.886 
-0.000353697      12.4125      52.5953 
0.000114203      10.1102      32.1519 
