! Center RA: 12 21 31.69052,  Dec: +28 13 58.50011 (2000.0)
! Established model.
! Flux (Jy) Radius (mas)  Theta (deg)  Major FWHM (mas)  Axial ratio   Phi (deg) T \
! Freq (Hz)     SpecIndex
 0.0808660    0.0286526     -135.000 
 0.0219271    0.0446338     -116.996 
0.00180058    0.0828082      104.162 
0.00829755     0.101837      101.476 
 0.0243596    0.0633577     -108.650 
 0.0312277     0.121759      99.5784 
 0.0281374    0.0828082     -104.162 
 0.0100834     0.141777      98.2159 
0.00225622    0.0896014     -116.350 
0.00861317     0.107434     -111.727 
0.00339395     0.120062      90.0000 
0.00214445    0.0600310      90.0000 
0.000506529    0.0397705      90.0000 
0.000497810    0.0202604      90.0000 
0.00316200     0.145849      105.824 
 0.0119225     0.164706      103.973 
0.000585836    0.0998015      90.0000 
0.000872576     0.189835      108.435 
0.00606667    0.0828082      75.8378 
0.00289932     0.209153      106.680 
0.00292674     0.234065      110.062 
0.00406422     0.126477     -108.327 
0.00176153     0.253192      108.489 
0.000388550     0.101837      78.5245 
0.00115533     0.152624     -113.162 
0.00548694    0.0896014      63.6495 
0.00342265     0.260038      112.569 
0.00359294     0.145849     -105.824 
0.00317983     0.278155      111.026 
0.000790430     0.170734     -110.586 
0.00385483     0.107434      68.2729 
0.00506160     0.164706     -103.973 
0.00352243     0.297155      109.625 
0.00546572     0.189835     -108.435 
0.00311920     0.116465      58.9729 
0.000580873     0.304558      113.217 
0.000848283     0.316312      108.392 
0.00313897     0.323277      111.801 
0.000293766     0.459977      124.364 
0.000640207     0.250509      118.638 
0.00114802     0.476838      122.990 
0.00108272     0.100252      53.2159 
0.000309323     0.798447      112.081 
4.41707e-05     0.184432     -102.453 
4.40769e-05     0.334882      107.339 
0.000805952     0.349107      113.700 
0.00150082     0.969133      111.818 
0.000191977     0.375627      115.183 
0.000673721    0.0633577      71.3505 
4.68758e-05     0.394056      113.929 
0.000137215     0.121759     -99.5784 
4.64813e-05     0.402700      116.565 
0.000181750     0.420241      115.375 
4.44499e-05     0.429314      117.819 
0.000339530     0.447333      116.608 
0.000672297     0.951048      112.255 
0.000124230     0.456404      118.798 
0.000565130     0.474259      117.619 
0.000324839     0.141777     -98.2159 
0.000710901     0.501018      118.638 
0.000700782     0.769637      114.541 
0.000658365     0.161111     -97.2243 
3.11961e-05     0.987971      111.381 
0.000321131     0.995250      112.427 
8.67156e-05     0.483985      119.745 
0.000373538     0.751254      115.183 
0.000380456      1.01401      111.990 
4.89845e-05     0.181229     -96.4188 
0.000408220     0.510656      120.559 
0.000249861     0.180093     -90.0000 
4.62889e-05      1.03212      111.585 
0.000112788     0.113549      45.0000 
0.000217816      1.03975      112.623 
0.000186121     0.128090      51.1829 
0.000454043     0.778270      115.898 
0.000201592     0.181229     -83.5812 
0.000120169      1.05848      112.201 
0.000377974     0.141141      45.0000 
9.46210e-05      1.07726      111.794 
0.000146054     0.184432     -77.5470 
0.000402189     0.760096      116.565 
8.95973e-05     0.504899      123.666 
7.23259e-05      1.09540      111.415 
5.21349e-05      1.11429      111.035 
1.74738e-05      1.00315      113.497 
0.000149854     0.189835     -71.5651 
0.000175183     0.516406      125.538 
3.36256e-05     0.984607      113.967 
6.64954e-05      1.13322      110.667 
0.000264521     0.733645      115.831 
0.000147889     0.966811      114.437 
7.88352e-05      1.15150      110.324 
0.000120935     0.197181     -65.9711 
1.54140e-05      3.00487      116.904 
7.49080e-05      3.01422      116.399 
0.000184567      1.17052      109.980 
0.000348709     0.156126      39.7351 
7.11773e-05     0.527985      127.261 
7.05828e-05      2.87543      113.354 
0.000198062      3.01409      117.248 
2.81802e-05     0.197181     -114.029 
6.90548e-05     0.205897     -61.0062 
1.37381e-05     0.512006      128.634 
2.71476e-05      1.14142      93.0148 
0.000151161     0.524894      130.361 
0.000148127      2.86775      112.996 
0.000157432     0.223834     -63.5208 
2.62930e-05      1.08279      85.7475 
7.55408e-05     0.948403      114.943 
4.88923e-05     0.205897     -118.994 
8.86103e-05      1.18958      109.647 
0.000207320      1.08441      84.7194 
7.05010e-05     0.607364      107.248 
0.000148382      1.17760      110.906 
0.000181951      3.03211      117.072 
2.33820e-05     0.993009      115.035 
0.000128734     0.523357      133.490 
9.58581e-05     0.975367      115.520 
0.000659718      1.06707      83.5397 
0.000135848      2.85990      112.622 
0.000377479     0.184676      40.5508 
1.10002e-05     0.626742      106.699 
5.13647e-05     0.216445     -123.690 
6.29114e-05     0.601667      105.406 
0.000145264     0.233573     -59.0678 
3.17849e-05      1.20797      109.335 
0.000108421      2.84190      112.773 
0.000262402      3.75915      95.7971 
5.01214e-05      1.16591      112.157 
2.00669e-05      1.22711      109.022 
0.000209243      1.00142      116.047 
2.90674e-05     0.621223      104.909 
2.91379e-05     0.536971      135.000 
9.75157e-06      1.25851      107.560 
0.000120901      2.97767      120.701 
9.73062e-05     0.268467      116.565 
1.90531e-05      1.27784      107.286 
9.79308e-05     0.523357      136.510 
1.86160e-05      1.13722      113.859 
0.000116762      3.04139      117.412 
7.93643e-05     0.596781      103.599 
3.64628e-05      1.29649      107.030 
7.85087e-05      2.65537      112.129 
3.47030e-05     0.244605     -125.006 
0.000407899      3.60507      105.118 
0.000525697      1.75664      97.8567 
1.77207e-05      1.14556      114.786 
7.58278e-05      1.31587      106.771 
1.71225e-05      1.21072      120.793 
8.18338e-05      2.38180      113.763 
8.16688e-05      2.35610      113.520 
0.000115433      1.22122      121.610 
8.08313e-05     0.244605     -54.9936 
8.11437e-05     0.256296     -128.581 
9.80492e-05     0.592344      101.694 
6.78697e-05     0.538237      137.995 
8.04661e-06      2.63731      112.289 
5.34512e-05      2.30202      108.748 
7.51125e-05      1.32987      105.714 
0.000252688      2.96026      120.901 
0.000540045      3.75723      95.5011 
3.82268e-05      2.87861      112.467 
1.51544e-05      2.53870      106.008 
2.19760e-05      2.66278      112.518 
0.000183089     0.199903      36.9129 
2.20218e-05      2.87093      112.093 
5.59993e-05      1.33528      106.520 
8.14958e-05      2.53319      105.568 
5.50729e-05      2.29019      109.385 
2.13323e-05      2.88902      111.948 
2.74496e-05      2.90782      111.799 
3.38942e-05      1.23196      122.412 
2.69447e-05     0.524894      139.639 
2.00824e-05      2.68928      112.751 
9.37939e-05      2.39003      114.207 
7.02238e-05     0.588572      99.7625 
1.33832e-05      1.08646      83.6554 
1.32741e-05      2.92664      111.651 
0.000156710     0.983930      116.546 
0.000225274      1.34866      105.490 
4.90595e-05      2.73379      112.821 
0.000103002     0.269397     -131.952 
6.53330e-06      2.95659      111.016 
0.000150538      1.24911      121.914 
1.92189e-05      2.29582      108.287 
9.78359e-05     0.540492      141.030 
4.98055e-05      2.96835      110.510 
0.000121616      2.28355      108.905 
8.10488e-05     0.254690     -45.0000 
0.000102649      3.05042      117.738 
5.78893e-05     0.212689      41.2810 
4.58056e-05      2.97964      110.014 
2.29856e-05     0.233573      120.932 
9.13035e-05      2.77871      112.867 
5.58828e-05     0.565518      98.1624 
5.71289e-06      2.36396      113.953 
1.08721e-05      2.71582      112.980 
7.70035e-05      2.39841      114.649 
0.000398861     0.228306      37.9245 
0.000153012      2.76005      113.031 
0.000345043      3.01120      109.401 
2.13550e-05     0.244605      125.006 
0.000101510      2.54686      105.027 
6.84151e-05      3.36907      111.233 
6.33291e-05     0.562998      96.1209 
6.42302e-05     0.228306      127.925 
1.97105e-05     0.527985      142.739 
0.000255774     0.283342     -135.000 
2.35398e-05      2.28954      107.805 
7.35065e-05     0.543641      143.984 
0.000289677      1.30046      120.516 
5.23936e-05      2.40661      115.071 
6.64078e-05     0.269397     -41.9516 
9.49915e-05      2.27730      108.441 
7.20191e-05      1.06498      84.6228 
0.000225810      3.37619      111.541 
1.76957e-05     0.541740      94.2100 
9.40387e-05      2.93639      121.627 
8.38686e-05     0.965848      117.083 
8.59790e-06      2.67856      113.319 
2.44920e-05      1.18188      92.9115 
8.48947e-06     0.561200      94.0638 
6.62064e-05     0.540658      92.1476 
0.000194254      1.36819      105.263 
8.22231e-06      2.44230      115.731 
2.34133e-05      2.45083      116.141 
3.07524e-05     0.226037      135.000 
1.44225e-05      2.66066      113.485 
0.000106609      2.48635      116.782 
0.000123164      3.05990      118.073 
5.32203e-05     0.532403      145.683 
2.54950e-05      2.28343      107.321 
0.000107106      1.20137      92.8642 
0.000147923      1.75941      98.4861 
3.70051e-05      3.59068      105.503 
0.000127038     0.288454     -33.6487 
0.000165669     0.244605      144.994 
5.83727e-05      2.41527      115.506 
3.57207e-06      2.80458      113.094 
2.03361e-05      2.54169      104.586 
3.87188e-05     0.540279      90.0000 
0.000211273      2.29948      103.070 
0.000110938     0.975239      118.143 
3.47969e-06      2.26439      109.071 
2.93678e-05      2.25867      110.193 
6.90083e-05     0.560155      92.0728 
2.01059e-05      2.38069      114.845 
0.000127260     0.549255      146.874 
2.60697e-05      2.68634      113.701 
2.62028e-05      2.56130      104.472 
5.96953e-05      2.83486      122.899 
0.000102794      3.58551      105.203 
4.89417e-05      2.25479      111.330 
2.80245e-06     0.244605      35.0064 
2.04075e-05      2.24750      110.849 
0.000142273     0.271820      36.0157 
3.67726e-05      2.66849      113.869 
2.65083e-05     0.540658      87.8524 
6.49074e-05      2.55631      104.032 
9.18358e-05      3.77552      95.1656 
0.000106938      1.77871      98.3933 
8.64570e-06      2.49521      117.182 
7.74863e-05      3.38368      111.860 
2.38697e-05      2.23593      111.519 
2.83795e-05     0.559789      90.0000 
3.32438e-05      1.22078      91.8669 
8.30762e-06      3.00453      109.037 
2.64881e-05     0.957421      118.714 
5.46006e-05      2.13573      111.996 
-0.000222459    0.0562440     -45.0000 
3.93841e-05     0.796545      115.261 
2.97610e-05      3.06949      118.407 
1.14197e-05      2.64998      114.047 
7.80843e-06     0.284207     -39.3213 
1.58892e-05      2.81787      123.123 
9.17090e-05     0.269397     -48.0484 
-9.31748e-05     0.917561      78.6809 
1.08397e-05     0.581411      93.9223 
5.66578e-05     0.233573      149.068 
5.28984e-06     0.560155      87.9272 
8.59891e-06      2.63149      114.226 
1.33957e-05      2.50446      116.573 
1.17439e-05      3.07779      117.896 
9.97771e-06     0.580403      92.0005 
1.97809e-05      1.06954      82.4611 
4.95049e-06     0.561200      85.9362 
4.90324e-06      2.57597      103.923 
4.88794e-06      1.34752      84.0227 
3.22085e-06      3.08732      118.228 
1.60618e-06      2.61371      114.402 
-0.000347779      4.30818      102.872 
-0.000148474      9.08263      19.1520 
-0.000268769      4.32365      102.560 
0.000540509      1.45896      123.249 
-0.000527846      5.25692     -29.3898 
-0.000417381      9.10843      19.2306 
0.000624565      8.43255     -70.3170 
-0.000240669      10.1160     -101.866 
0.000130397      1.80891      119.117 
0.000424381      10.3307     -9.80716 
-0.000389737      11.2207     -59.8255 
-0.000202544      10.1358     -101.842 
-0.000498649      8.81079      81.7788 
0.000429123      9.12382     -115.722 
0.000153897      1.81630      118.259 
-0.000184945      7.34592     -7.66658 
0.000278441      11.6660      38.7358 
0.000148846      9.64628      74.6081 
0.000182563      5.59924      60.2294 
-0.000208802      7.67551     -173.116 
0.000207108      2.40565      42.9902 
-0.000209169      6.62899     -127.771 
0.000274290      10.6594     -19.6251 
-7.41390e-05      10.0254      55.0740 
-0.000273663      10.3272      104.011 
-0.000108738      1.72080     -107.590 
-0.000207742      4.74836     -119.802 
7.39984e-05      9.79881     -13.6968 
0.000268502      10.5697     -107.510 
0.000239437      12.1669     -144.298 
-0.000133099      10.1119     -101.754 
0.000236303      13.7191     -44.1734 
-0.000103908      9.77865     -72.3784 
-7.14174e-05      4.64441     -12.1814 
7.16496e-05      8.73172      76.7603 
0.000167578      10.1380      18.7555 
-3.60234e-05      3.46057      59.4368 
3.59922e-05      10.6379     -46.3690 
3.59270e-05      5.95473      80.9151 
-0.000231290      12.2824     -49.3581 
0.000194295      8.49284      38.7879 
-0.000131806      7.08343     -4.69711 
0.000164410      11.2836     -122.847 
0.000226041      9.79404     -13.5816 
0.000131228      9.44091      89.1484 
-0.000134002      12.0358      45.6062 
0.000290554      5.95784      80.7299 
0.000193565      10.6240     -46.4481 
0.000289225      7.80235      91.3226 
-0.000255199      6.93937     -79.3693 
-9.81281e-05      10.2401     -179.551 
9.78676e-05      5.93546      145.993 
0.000253321      6.73642     -126.430 
0.000159628      8.72727      76.8850 
9.62122e-05      10.5639      118.990 
6.38747e-05      8.21195     -67.3693 
-0.000126926      11.2309     -59.7361 
-3.33384e-05      8.07129     -149.303 
-9.48116e-05      1.71479     -106.944 
-9.50779e-05      4.43998     -164.583 
6.36844e-05      3.14094     -178.905 
6.40571e-05      9.66509      74.6388 
-9.30606e-05      9.43334      28.6323 
-9.37466e-05      12.1551     -43.0663 
-6.31145e-05      10.4924     -13.5582 
6.31099e-05      9.00219      72.8126 
9.18532e-05      5.33219     -107.688 
-3.18203e-05      3.43385      59.5516 
-3.16746e-05      10.0142      55.1656 
6.20389e-05      10.3507     -9.78805 
-6.15942e-05      7.63569      162.942 
-3.14658e-05      6.89501     -107.382 
9.16242e-05      10.0915     -173.171 
-9.15341e-05      8.82966     -16.1755 
-6.13737e-05      9.57519      93.2346 
-9.06531e-05      6.60057     -127.740 
6.08504e-05      1.47017      123.909 
-3.10020e-05      3.39257      73.9101 
-3.06102e-05      3.56655     -102.627 
-3.05998e-05      10.2671     -174.523 
3.03057e-05      9.72028     -90.5883 
5.93414e-05      9.68463      74.6705 
-2.99637e-05      8.00253      128.302 
2.98592e-05      12.1828     -144.352 
-2.98031e-05      7.36525     -7.64633 
-2.97008e-05      3.36824      74.1493 
-2.97045e-05      6.91969     -107.494 
2.96996e-05      7.41675     -127.552 
2.96369e-05      12.4024      134.804 
-2.92450e-05      11.3063     -63.9791 
0.000155479      11.4490     -50.3877 
-0.000196839      6.87785      141.730 
0.000237907      5.41386     -108.297 
-7.47209e-05      12.9395      129.671 
-6.90958e-05      10.1624      56.5599 
-2.66472e-05      8.64195      85.8871 
0.000308520      3.70381     -173.485 
-0.000322836      12.9520      129.737 
0.000140258      11.4388     -54.3946 
-0.000117994      8.64343      85.7531 
-7.05491e-05      10.1455      56.4968 
-4.88847e-05      4.30729      10.1647 
-7.15375e-05      9.33293      126.111 
9.31096e-05      8.36288      162.604 
0.000489329      11.5499      117.764 
-0.000163566      10.5175      65.6274 
0.000237121      11.4275     -54.4741 
0.000110278      4.59035     -112.541 
-8.59074e-05      4.31078      10.4199 
-0.000102752      5.58862     -37.7346 
0.000114577      9.80452     -52.7100 
4.24408e-05      3.54002      132.251 
-7.69102e-05      9.32810      126.281 
6.02829e-05      8.94170     -65.5556 
5.76909e-05      11.4366     -50.4630 
2.13669e-05      3.72394     -173.521 
-6.12159e-05      12.6599      133.785 
-0.000171180      7.80986      115.319 
-0.000162861      6.08782      95.4674 
-6.07878e-05      10.6974      35.0256 
-2.07403e-05      8.66363      85.7631 
0.000144432      8.36873      162.476 
2.05731e-05      8.32570      9.95982 
-0.000105778      11.1315      44.0550 
-5.65191e-05      4.20488     -67.3384 
-7.53188e-05      5.82596      103.702 
-2.02765e-05      8.59510      84.7956 
0.000202809      5.81039      144.668 
-0.000143376      12.4967     -127.456 
-5.61005e-05      11.4715      136.201 
7.27160e-05      11.8429     -136.849 
1.97934e-05      12.8100      139.495 
-0.000101083      8.34777      14.0038 
-8.65933e-05      8.59696      84.6611 
3.69433e-05      10.3771     -159.818 
3.82716e-05      4.61684     -112.676 
-8.47302e-05      11.5582      133.527 
3.65563e-05      11.5557      147.081 
1.92898e-05      5.14985      133.430 
-1.90785e-05      10.6077     -34.7075 
4.87617e-05      3.52643      132.007 
-3.64400e-05      3.09850      29.3835 
-0.000184962      9.55787     -73.8402 
-0.000232352      10.7140      34.9634 
8.58570e-05      7.89149     -66.5503 
-8.39140e-05      11.9308     -39.6948 
5.26341e-05      8.30226      9.84629 
5.31735e-05      12.7946      139.436 
-3.67677e-05      9.79826     -42.1878 
5.17252e-05      9.79226     -52.8043 
4.72017e-05      13.1200     -49.3884 
-0.000112091      12.6739      133.851 
-8.47004e-05      9.17704      173.620 
6.91742e-05      10.2099      140.164 
-1.80641e-05      10.1731      56.4682 
1.79987e-05      11.4353      147.643 
3.47672e-05      5.13516      133.585 
-1.79801e-05      8.68407     -45.7457 
1.77983e-05      10.5142     -112.124 
0.000296905      8.32322      47.5321 
9.76959e-05      4.59816     -112.774 
-0.000186841      9.27549     -124.549 
-3.36814e-05      9.79639     -42.3519 
-3.24844e-05      10.5966     -34.6207 
-1.69331e-05      8.66994     -45.8416 
-4.64821e-05     0.865715      6.61990 
-5.93266e-05      6.89843     -103.070 
0.000131967      12.1087     -52.4476 
-3.25230e-05      11.4727      136.341 
3.18962e-05      13.6498      43.8729 
-1.65781e-05      7.63153      59.2691 
-1.64985e-05      5.60841     -37.3176 
-0.000139656      7.10460     -61.7730 
6.15484e-05      5.36684     -117.045 
7.15912e-05      8.97491      114.907 
4.66869e-05      2.93782     -168.613 
3.16281e-05      11.4245      147.729 
-8.01551e-05      11.3070      38.8985 
3.10587e-05      8.94979     -65.4419 
-0.000100205      8.65542     -45.7482 
0.000156665      10.3203     -113.286 
0.000202592      12.7968      139.564 
4.33954e-05      2.12324     -176.758 
7.08268e-05      8.21846      16.9773 
-4.57469e-05      7.61476      59.1941 
-1.57895e-05      3.08861      29.0560 
-0.000155196      8.62250     -91.4611 
1.57567e-05      6.49532     -70.9517 
-1.57934e-05      5.84492      103.656 
-0.000182808      12.4806     -127.513 
-1.55190e-05      9.81137     -42.2722 
8.98340e-05      8.32222      9.82243 
0.000152792      10.1970      140.252 
-0.000141675      11.4862      136.271 
1.51403e-05      2.10376     -176.728 
-2.93409e-05      5.61172     -37.0323 
-0.000134181      8.11508     -86.4693 
-2.92915e-05      7.37322     -55.2764 
-1.50109e-05      6.38225     -170.806 
2.88666e-05      12.4881      142.743 
3.99422e-05      11.4210     -50.3983 
-4.32404e-05      10.3333      37.8469 
-4.30205e-05      4.24139     -141.508 
8.25087e-05      7.01782     -98.5226 
1.48120e-05      6.48355     -70.7262 
-1.46897e-05      5.83079      103.895 
5.53876e-05      13.8995      47.3322 
5.47717e-05      6.91989      109.064 
1.46801e-05      11.2643     -125.242 
2.84715e-05      7.87360     -66.4938 
0.000104127      8.38734      162.517 
-9.41256e-05      5.84593      22.5293 
-2.87595e-05      6.06962      95.6761 
-1.45320e-05      10.5256      65.5307 
1.44964e-05      4.18991     -42.6775 
