! Center RA: 12 21 31.69052,  Dec: +28 13 58.50011 (2000.0)
! Established model.
! Flux (Jy) Radius (mas)  Theta (deg)  Major FWHM (mas)  Axial ratio   Phi (deg) T \
! Freq (Hz)     SpecIndex
 0.0399026    0.0202604     -90.0000 
 0.0342811      0.00000      0.00000 
 0.0103937    0.0286526     -135.000 
0.00130147    0.0446338      63.0042 
0.00671512    0.0633577      71.3505 
 0.0141965    0.0446338     -116.996 
0.00528955    0.0562440     -135.000 
0.00250259    0.0720098      56.4755 
0.00265910    0.0896014      63.6495 
0.00679823    0.0828082      75.8378 
0.00937819     0.101837      78.5245 
0.00591957     0.259634      90.0000 
0.00566250     0.240124      90.0000 
0.000545641    0.0633577      18.6495 
0.00203401    0.0600310      0.00000 
0.00103878    0.0802914      90.0000 
0.00542146    0.0998015      90.0000 
0.00203524    0.0446338     -26.9958 
0.00992135     0.260423      94.4620 
0.000211006    0.0802914      0.00000 
0.00100568    0.0397705     -90.0000 
0.000788444    0.0998015      0.00000 
0.00123013     0.120062      0.00000 
0.00212880     0.120062      90.0000 
0.00346596    0.0720098     -123.524 
0.00178860     0.140322      0.00000 
0.00256033     0.101837      101.476 
0.00236442     0.159832      0.00000 
0.00182104     0.676411      124.148 
0.00100882     0.282706      98.0871 
0.00302152     0.441522      95.1680 
0.00127802     0.107434      111.727 
0.00260173    0.0848966     -135.000 
0.00188087     0.687989      125.545 
0.000101808     0.220795      84.7351 
0.00229861     0.204262      78.7726 
0.000629649     0.777872      107.981 
0.00109971     0.180093      0.00000 
0.00137755     0.306099      101.310 
0.000847579     0.100252     -143.216 
0.00303814     0.784114      109.337 
0.000306386     0.181229      6.41879 
0.00143817     0.170734      69.4145 
0.00160462    0.0720098     -146.476 
0.000822421     0.184432      77.5470 
0.000319492     0.164706      76.0271 
0.000201877    0.0633577     -161.350 
0.000101508     0.116465      58.9729 
0.000289010    0.0848966      135.000 
0.000187280     0.116465      31.0271 
0.000365296     0.404436      98.5360 
0.000261639     0.100252      126.784 
8.92343e-05     0.134233      26.5651 
0.000914008     0.424483      98.1301 
0.000487477     0.145849      15.8239 
0.000685979     0.759338      108.435 
0.000526144     0.128090      128.817 
0.000298168     0.401929      95.6787 
0.000370956     0.100252     -126.784 
0.000295389     0.495028      104.036 
0.000602021     0.161111      7.22432 
0.000254513     0.381773      95.9795 
0.000209689     0.121759     -99.5784 
9.51531e-05     0.519084      105.684 
0.000270413     0.716267      125.921 
0.000329106     0.860287      107.566 
0.000639277     0.513977      103.509 
0.000263513     0.362375      96.3009 
0.000651519     0.141141      135.000 
0.000364287     0.223431      79.7468 
0.000560496     0.140322     -90.0000 
0.000546828     0.765732      109.820 
6.36561e-05     0.744131      126.223 
0.000548640     0.509625      101.293 
0.000297630     0.727885      127.165 
0.000182951     0.342244      96.6731 
0.000234317     0.878907      107.182 
0.000366153     0.740145      108.931 
0.000570333     0.128090      141.183 
5.86531e-05     0.322129      97.0919 
0.000579510     0.325253      100.636 
0.000329829     0.529508      100.864 
0.000218962     0.756280      127.461 
0.000655827     0.159832     -90.0000 
0.000304593     0.116465     -148.973 
0.000412113     0.892839      105.601 
0.000343996     0.420705      92.7603 
0.000297741     0.420217      90.0000 
0.000201205     0.740301      128.415 
0.000557419     0.526180      98.7772 
0.000135184     0.302778      97.5477 
0.000192299     0.200353      0.00000 
0.000232426     0.768771      128.660 
0.000555261     0.907248      104.025 
0.000260173     0.201375     -5.77433 
0.000381447     0.733822      107.434 
8.72125e-05     0.753057      129.623 
0.000317238     0.134233     -153.435 
0.000638991     0.156126      140.265 
0.000121749     0.420705      87.2397 
0.000224976     0.161111     -82.7757 
0.000321081     0.546212      98.4529 
0.000434469     0.781108      129.777 
0.000237320     0.440193      87.3620 
4.03761e-05     0.220795     -5.26495 
0.000478421      4.13486      114.579 
0.000589298     0.223431     -10.2532 
0.000376506     0.181229     -83.5812 
0.000148611     0.926189      103.732 
0.00126985      2.40058      79.4453 
0.000393360     0.543603      96.3402 
0.000243187     0.765647      130.747 
0.000104851     0.422095      84.5935 
0.000332658     0.794223      130.901 
0.000446788     0.921752      102.554 
0.000157408     0.152624     -156.838 
0.000156284      4.12647      114.323 
3.33462e-05     0.424483      81.8699 
0.000176128     0.523472      96.5851 
3.26344e-05     0.427819      79.1828 
6.34017e-05     0.431906      76.6398 
0.000469130      1.04433      106.703 
0.000444777     0.172194      144.578 
0.000146249      1.82402      105.265 
6.06648e-05     0.437032      74.0546 
0.000399595     0.247514     -14.0362 
2.99190e-05     0.728215      105.970 
0.000377687     0.807634      131.987 
0.000140297     0.438632      65.7588 
0.000815647      2.28846      95.0226 
8.52818e-05     0.572799      119.251 
2.92017e-05      1.04177      93.3035 
0.000967439      1.06199      93.2405 
0.000122921     0.703300      104.837 
0.000176858     0.164706     -76.0271 
0.000431382      1.82925      105.855 
0.000213139     0.610413      121.580 
2.68175e-05     0.178866     -153.327 
0.000148348     0.447333      63.3920 
9.73359e-05     0.197181     -155.971 
2.55979e-05     0.600426      119.994 
0.000191990      2.38449      78.8775 
0.000184492     0.541740      94.2100 
0.000271250     0.917561      101.319 
0.000220737      4.09998      114.191 
0.000137523     0.779022      131.876 
7.02301e-05     0.400469      92.8999 
0.000322240     0.199903      143.087 
0.000397952     0.820814      133.000 
4.60058e-05     0.227911     -15.2717 
0.000572888      2.31042      95.4606 
0.000227623     0.449253      57.6903 
4.49715e-05      2.40160      97.6491 
2.25641e-05      2.31690      83.0614 
0.000226557     0.170734     -69.4145 
2.24277e-05     0.345185      100.015 
8.78253e-05      2.38849      78.4006 
0.000415158      1.12074      124.829 
0.000570281     0.215843     -158.162 
0.00143561      1.98421     -165.412 
0.000236886      2.31454      83.5593 
0.000105214     0.253192     -18.4886 
0.000159341      2.39908      97.1873 
0.000362037      2.29229      83.9871 
0.000899795      2.17730     -159.566 
0.000183375      2.39249      77.9429 
0.000100308     0.621263      123.172 
0.000258886     0.234065     -20.0616 
0.000399907      1.96986     -164.693 
0.000722701      2.42093      97.5876 
3.76545e-05     0.560155      92.0728 
0.000289298      2.38227      76.8918 
0.000502168     0.188432      148.019 
9.09959e-05     0.632576      124.708 
0.000668534      2.08247      87.2531 
0.000643626      1.34416      136.810 
1.85756e-05     0.559789      90.0000 
0.000191927     0.459977      55.6359 
0.000119908     0.161670     -60.2221 
1.82282e-05     0.438496      43.1971 
0.000103605      2.00361     -152.667 
8.25825e-05     0.253192      71.5114 
0.00114239      1.14895      125.081 
0.000213160     0.643885      126.135 
0.000115205      2.38677      76.4356 
0.00130741      1.98564     -152.399 
0.000351733      1.85433      106.286 
0.000253167      1.07494      108.435 
0.00118558      2.37195      75.8451 
1.59051e-05     0.698386      103.230 
0.000191897     0.250509      61.3621 
4.02921e-05     0.913801      100.073 
0.000110646     0.172194     -54.5784 
7.13701e-05      2.31244      84.0397 
0.000574765      1.32946      136.212 
0.000350194      1.03343      137.354 
0.000201449      2.29025      84.4911 
0.000178679     0.234065     -159.938 
0.000335446     0.656037      127.565 
0.000390743     0.189835     -161.565 
0.000202347     0.486913      99.4914 
0.000550782      1.06104      92.1481 
0.000399589      1.13880      149.379 
4.85717e-05     0.824622      112.808 
0.000482220     0.223834     -26.4792 
0.000767457      2.06331      86.6641 
7.56694e-05     0.850533      113.557 
0.000319645     0.260826      57.4530 
0.000576966      1.15628      149.891 
0.000557091      1.98941     -164.847 
5.15834e-05     0.178866     -63.3275 
0.000205355      1.86011      106.885 
0.000427990      4.25781      115.603 
0.000177075      2.28846      84.9774 
4.19941e-05     0.613676      70.9447 
0.000202689     0.684458      127.875 
0.000202182     0.646553      68.1986 
0.000514255     0.468857      140.194 
1.98241e-05     0.910591      98.8646 
0.000236396      2.19560     -159.744 
1.00262e-05     0.189835     -71.5651 
2.81701e-05     0.440193      92.6380 
0.000303417     0.620320      69.2412 
0.000268612     0.842640      112.294 
0.000158055     0.260038     -112.569 
8.97483e-06      2.26581      85.9549 
5.43167e-05     0.456404      61.2016 
0.000148492      2.06519      81.0956 
3.88284e-05     0.894598      100.292 
0.000287456     0.164706     -166.027 
0.000279826      1.87972      90.0000 
0.000254660      2.28678      85.4831 
0.000389246      2.37699      75.3715 
8.07091e-06      2.35407      83.6679 
0.000290403      2.18866     -160.242 
0.000100156     0.271820      53.9843 
2.82567e-05      2.35200      84.1403 
1.49804e-05      1.12862      150.265 
0.000306040      2.39160      75.9638 
-0.000571027     0.912809      61.2016 
7.74275e-05     0.268467     -116.565 
1.93985e-05      1.10064      109.102 
3.51437e-05     0.466502      59.0204 
-0.000422901      2.28665      101.605 
0.000150601      2.01183      83.7259 
0.000189938      1.81729      114.025 
0.000194453     0.672210      126.512 
-0.000487139      4.16752      112.876 
2.12608e-05     0.205897      151.006 
0.000114354      2.35001      84.6317 
3.27798e-05     0.898439      101.563 
3.29600e-05     0.278118     -120.301 
0.000218964      1.06049      91.0947 
0.000205784      2.31244      95.9603 
0.000199857     0.639305      69.8847 
1.06205e-05      2.04512      86.0657 
0.000138593      2.44102      97.5248 
3.97721e-05     0.344213     -144.404 
2.33270e-05     0.288454     -123.649 
8.25198e-05     0.205897     -28.9938 
7.81779e-05     0.882975      103.115 
5.74797e-05     0.145849     -164.176 
8.46855e-05      2.06223      87.2261 
2.26947e-05     0.360880     -146.277 
6.78875e-05      1.35811      136.186 
9.72927e-05      1.99244      83.6646 
1.78152e-05     0.199903     -36.9129 
4.84509e-05      2.28527      85.9894 
4.08024e-05     0.476838      57.0102 
7.33040e-05      1.96837     -152.136 
5.73167e-05     0.372066     -143.777 
-5.71060e-05      2.30650      101.504 
-0.000153770     0.501727      23.5362 
3.95295e-05     0.286050     -114.817 
6.34265e-05      2.39660      75.4938 
-8.22241e-05      2.12136      92.1691 
3.76978e-06      2.38199      74.9174 
-0.000910826      6.04846     -52.5259 
0.000914447      9.48717     -30.6746 
0.000579842      6.16822     -177.029 
0.000793464      9.24128      138.862 
0.000872301      7.37250      123.041 
-0.000365297      9.29425     -6.17825 
-0.000230709      9.02531      92.0298 
-0.000910433      4.93619     -45.8253 
-0.000670124      3.26415      52.2186 
0.000222751      10.5518      17.1992 
-0.000485489      9.94473      24.3488 
-0.000713432      9.00582      92.0342 
0.000759791      10.5578      17.3042 
0.000330891      2.78372     -177.111 
0.000822492      9.00511      143.946 
0.000624201      2.12007      54.2171 
0.000403368      9.06377     -130.615 
-0.000618434      6.99274      176.555 
-0.000259347      8.12215     -41.1043 
0.000371319      11.7118     -34.7755 
-0.000315056      2.84718      148.208 
-0.000258535      10.3849     -43.2813 
6.66200e-05      8.92556     -74.0030 
-0.000360153      9.09566     -76.3914 
-0.000185859      6.89488      99.5156 
0.000250226      10.1920     -130.063 
0.000297560      10.2729      151.640 
0.000301432      3.96933      79.2572 
0.000245533      4.90104      178.833 
-0.000466545      7.62770     -107.863 
-0.000352287      4.32436      164.160 
0.000298569      9.00957      84.0097 
0.000233867      8.92020     -74.1235 
0.000228455      9.47040     -30.7349 
-0.000459353      11.9006      51.5490 
0.000240337      7.29294     -79.8903 
-0.000402554      13.3506      134.879 
0.000285279      9.07859     -130.535 
0.000404035      7.22432      30.2564 
-0.000232166      1.03341      14.5509 
-0.000120489      8.92531     -160.630 
6.06796e-05      9.05060     -130.518 
-0.000399653      11.5575      133.669 
0.000285301      7.12847      63.5051 
-0.000284724      8.95565     -95.1245 
0.000169500      10.9411      115.439 
-6.00856e-05      8.92401     -126.434 
0.000283900      12.3538      40.6005 
-9.79148e-05      12.6614     -37.6856 
0.000393223      7.09595     -32.5725 
0.000223646      10.4968     -113.585 
-0.000224893      4.37016     -81.3092 
-0.000224052      6.55173     -142.815 
5.85462e-05      9.92949     -149.097 
0.000112894      9.19870     -96.4919 
-0.000331742      8.93180     -160.512 
-0.000112355      9.95310      24.4550 
0.000165875      12.0249      46.4842 
-0.000113386      6.37215     -9.75627 
-0.000111907      6.32475     -67.8931 
-0.000110467      12.8654      50.1726 
0.000165723      8.34982      37.9956 
0.000164503      13.8327      135.820 
-5.62674e-05      6.02546     -15.0054 
0.000217462      11.1534      125.144 
5.60480e-05      4.70458     -26.7817 
-5.61155e-05      10.4130     -43.2889 
-0.000110299      5.98420      53.0123 
0.000163153      7.29639     -79.7394 
-0.000162556      7.55820     -117.244 
0.000109470      4.88079      178.828 
0.000279477      11.7233     -34.8568 
0.000109185      9.94688     -149.157 
-0.000108616      10.0592     -29.6765 
0.000182607      10.2790     -76.6110 
-0.000108245      8.17201      95.0572 
5.42694e-05      9.71721     -156.339 
-5.41915e-05      6.35218     -9.78724 
0.000106864      9.24635     -104.787 
5.39285e-05      2.76424      71.4323 
-5.38718e-05      10.7329      161.869 
5.37082e-05      10.0275      74.0240 
-0.000106399      4.81973      71.8669 
0.000106264      8.78412     -88.3063 
-5.32462e-05      11.6794     -31.4852 
-5.29982e-05      3.27660      51.9386 
5.29336e-05      6.52612      87.5419 
-5.27966e-05      11.5710      133.739 
5.27763e-05      8.02262      46.7169 
-5.25914e-05      6.94437     -45.5823 
5.24690e-05      5.67252      133.714 
5.23855e-05      6.24376     -27.0578 
0.000503539      10.7634      45.8276 
-0.000276610      4.38214      164.374 
-0.000306249      6.94361     -45.3503 
0.000454920      7.73618      107.452 
0.000345145      6.59198     -21.3484 
0.000608667      6.57761      111.026 
5.42804e-05      8.49849      165.832 
0.000784525      11.2960     -138.803 
0.000378602      5.16486     -163.811 
-0.000204358      6.44048     -49.5363 
-0.000193753      10.3459      164.299 
0.000188581      8.51813      165.866 
-0.000101211      12.1907      51.1942 
-0.000277950      6.15466      70.4472 
0.000416385      13.8467      135.876 
9.74295e-05      5.80060      179.014 
0.000367038      9.78145     -91.0550 
0.000542853      10.6783     -50.1687 
-0.000424672      4.36263      164.302 
0.000139840      4.99631     -52.8065 
4.92615e-05      8.39294     -93.1418 
-4.90200e-05      10.9820      157.964 
0.000217431      11.2905      124.902 
-9.48033e-05      10.5508      165.620 
9.31938e-05      5.56643      177.327 
0.000223650      8.39185     -93.0036 
-0.000305177      6.43828     -49.2821 
-0.000131314      12.1749      51.1345 
0.000134998      7.83773      167.773 
0.000394797      11.2790      124.817 
0.000135024      10.8184     -130.877 
8.78478e-05      10.1341      26.8705 
-0.000269779      12.4301      47.6081 
0.000128509      5.69511      11.5453 
-0.000238303      6.95786     -45.2316 
-0.000433789      10.5647      165.753 
-4.45263e-05      11.0466     -135.952 
-0.000222167      10.1894      123.471 
-0.000285602      10.9391     -123.137 
0.000126804      11.9034      128.931 
8.33764e-05      5.78109      179.011 
4.34752e-05      11.5376     -137.599 
-4.32954e-05      8.56200     -166.353 
-0.000365819      9.80118     -48.1406 
-8.39427e-05      11.0601     -135.880 
0.000120119      11.7382     -141.293 
0.000199411      10.8469     -130.888 
-0.000196280      8.58096     -166.384 
0.000159422      6.58491     -21.1903 
0.000118662      13.8898     -46.0485 
-4.17432e-05      9.36933      175.471 
-8.02104e-05      10.6603     -41.0471 
0.000110292      8.75483      44.1666 
-0.000564446      13.5653      131.113 
7.37176e-05      10.3388      28.7973 
4.13979e-05      5.76122      178.806 
-6.52941e-05      10.7063     -114.267 
8.05538e-05      7.85753      167.805 
0.000608263      13.8612      135.934 
0.000561688      12.4911     -40.0629 
0.000154858      5.56555      177.527 
-0.000184266      9.16427     -123.064 
0.000115126      10.1007     -179.434 
-4.02578e-05      10.8753     -57.7717 
0.000112736      4.98018     -52.6656 
-0.000556060      11.9489     -40.2469 
0.000150554      5.03642     -143.726 
-0.000275938      8.44008     -52.9936 
0.000673835      14.0713     -44.7126 
-3.99265e-05      4.34313      164.230 
0.000254065      8.37062     -92.8775 
0.000142393      12.7889      133.478 
0.000112142      9.29500     -104.962 
0.000111394      5.71496      11.5047 
0.000181446      5.95056      65.1542 
0.000145189      11.9162      129.006 
-0.000316643      11.0326     -135.882 
0.000751835      5.27846      133.007 
0.000176595      10.1131     -114.538 
0.000355475      11.3042     -28.6508 
-0.000133900      10.7241     -114.225 
-0.000469963      8.53299     -103.419 
0.000210517      8.83507      118.827 
-0.000108955      9.03961     -86.1923 
3.84228e-05      5.29329      132.857 
3.82614e-05      6.70168     -20.4337 
7.40747e-05      7.28798      23.9655 
7.08699e-05      11.7758      128.309 
0.000467972      11.7214     -48.8051 
0.000203472      4.21639     -124.369 
0.000109049      10.5984      133.086 
-0.000239266      11.8715      136.844 
-0.000127362      12.7545     -48.6875 
-3.77358e-05      8.71804     -106.939 
0.000331772      5.74097      178.802 
-3.76326e-05      11.3504     -63.5264 
0.000275132      9.96259     -109.345 
0.000495297      9.84035      15.5613 
3.72793e-05      8.94067     -89.3604 
7.18723e-05      10.7488      45.7524 
0.000195121      7.86183      167.660 
-0.000105124      9.87803     -69.6212 
0.000203834      10.8745     -130.898 
-0.000133664      12.4432      47.5418 
-3.59340e-05      6.40455      69.5288 
-7.04430e-05      9.40153     -109.897 
6.61720e-05      10.1610      26.9170 
-0.000601628      10.0652      144.951 
-0.000546953      9.91892      122.983 
6.97855e-05      11.7639      129.482 
0.000103200      12.2808     -123.508 
-9.46753e-05      10.6755     -40.9757 
-9.85390e-05      11.5878     -56.1175 
3.52348e-05      9.22546      124.311 
0.000153452      10.0842     -31.0427 
0.000214560      10.5062      118.417 
3.51137e-05      5.39666      175.534 
-6.38461e-05      6.42508     -49.4190 
-0.000272122      9.72393     -70.0380 
-0.00107701      12.8934      50.1590 
3.45389e-05      6.68270     -20.4943 
6.66798e-05      5.54531      177.518 
-3.43929e-05      8.58575     -166.253 
-3.41124e-05      6.14816      70.6185 
-0.000684023      8.17656     -64.5003 
-0.000210445      8.82716     -16.5863 
-6.60199e-05      8.07979      96.9666 
0.000152954      10.7566      145.453 
6.54149e-05      10.9975      47.2840 
0.000154694      9.28998     -104.846 
3.34557e-05      9.02565      82.1057 
9.69535e-05      7.87732     -104.109 
6.46462e-05      10.0807     -179.318 
-0.000155215      13.1502      130.499 
-0.000212658      10.3174      166.207 
0.000155466      6.63368     -20.8397 
8.95880e-05      9.21405      124.206 
