! Center RA: 12 21 31.69052,  Dec: +28 13 58.50011 (2000.0)
! Established model.
! Flux (Jy) Radius (mas)  Theta (deg)  Major FWHM (mas)  Axial ratio   Phi (deg) T \
! Freq (Hz)     SpecIndex
 0.0605707    0.0335410     -63.4349 
 0.0251372    0.0212132     -45.0000 
0.00839319      0.00000      0.00000 
0.00768077    0.0300000      90.0000 
0.000475588     0.120000      90.0000 
0.000471390    0.0150000     -90.0000 
0.000467117     0.150000      90.0000 
0.000463447    0.0450000     -90.0000 
0.000459456     0.165000      90.0000 
0.000905136    0.0600000     -90.0000 
0.000897752     0.180000      90.0000 
0.000442462    0.0750000     -90.0000 
0.000439039     0.195000      90.0000 
0.000866476    0.0900000     -90.0000 
0.00128162     0.210000      90.0000 
0.00166538     0.105000     -90.0000 
0.00123260     0.225000      90.0000 
0.00158432     0.120000     -90.0000 
0.00157410     0.240000      90.0000 
0.00187830     0.135000     -90.0000 
0.00222711     0.255000      90.0000 
0.00245765     0.150000     -90.0000 
0.00139586     0.270000      90.0000 
0.000686364     0.270416      93.1798 
0.00410011     0.165680     -95.1944 
0.00407597     0.285394      93.0128 
0.00555067     0.180624     -94.7636 
0.00455727     0.300375      92.8624 
0.00423510     0.316425      95.4403 
0.00696325     0.195576     -94.3987 
0.000597149     0.333054      97.7652 
0.000195254     0.423468      112.932 
0.000193567     0.315357      92.7263 
0.000191883     0.443199      113.962 
0.000377907     0.300375      87.1376 
0.000374912     0.469574      116.565 
0.000184737     0.286575      83.9910 
0.000364139     0.489745      117.350 
0.000539095     0.288531      81.0274 
0.000178257     0.496815      118.887 
0.000175879     0.510000      118.072 
0.000347827     0.291247      78.1113 
0.000681542     0.517228      119.539 
0.000670148     0.280223      74.4759 
0.000806477     0.537703      120.141 
0.00281735     0.212132     -98.1301 
0.000948148     0.284605      71.5651 
0.00131153     0.558234      120.700 
0.00158113     0.289698      68.7495 
0.000285909     0.571183      119.932 
0.000820144     0.591692      120.466 
0.000784817     0.295466      66.0375 
0.00279943     0.226991     -97.5946 
0.000262630     0.784889      116.075 
0.000254055     0.804984      116.565 
0.000249326     0.545390      121.504 
0.00107809     0.309233      67.1663 
0.000367546     0.818428      116.095 
0.000121792     0.524786      120.964 
0.000582225     0.511981      121.827 
0.000466141     0.831925      115.641 
0.000760998     0.315357      64.6538 
0.000652842     0.845473      115.201 
0.000542454     0.499299      122.735 
0.00168808     0.210535     -94.0856 
0.000605239     0.486749      123.690 
0.000795335     0.865462      115.677 
0.000602044     0.322064      62.2415 
0.000651021     0.474342      124.695 
0.000559944     0.329317      59.9314 
0.00129445     0.879005      115.253 
0.000687083     0.337083      57.7244 
8.85902e-05     0.462088      125.754 
0.000510501     0.471010      127.235 
0.000959919     0.210000     -90.0000 
0.000553086     0.459157      128.367 
0.000773338     0.345326      55.6197 
0.000529312     0.892595      114.842 
0.000370019     0.457193      131.009 
7.43346e-05     0.232863     -104.931 
7.27281e-05     0.283019     -122.005 
7.24946e-05     0.354013      53.6156 
7.21017e-05     0.204022     -72.8973 
! Tentative model.
! Flux (Jy) Radius (mas)  Theta (deg)  Major FWHM (mas)  Axial ratio   Phi (deg) T \
! Freq (Hz)     SpecIndex
0.000287249     0.120934     -82.8750 
0.000279778     0.391152      122.471 
0.000105833     0.123693     -75.9638 
9.27167e-05     0.212132     -135.000 
9.18424e-05     0.128160     -69.4440 
0.000181206     0.403887      121.329 
9.09241e-05     0.244182     -137.490 
9.02631e-05     0.129035     -54.4623 
0.000177350     0.267067     -141.843 
0.000264060     0.416773      120.256 
8.87402e-05     0.138293     -49.3987 
8.73702e-05     0.138293     -40.6013 
8.66151e-05     0.279016     -143.746 
0.000170897     0.150000     -36.8699 
8.59314e-05     0.429796      119.249 
8.53821e-05     0.291247     -145.491 
0.000168947     0.437321      120.964 
8.41879e-05     0.300000     -143.130 
0.000166204     0.154434     -29.0546 
0.000245755     0.312130     -144.782 
0.000243611     0.450250      119.982 
8.14894e-05     0.161555     -21.8014 
0.000161260     0.463303      119.055 
0.000159912     0.171026     -15.2551 
0.000388466     0.324500     -146.310 
7.92947e-05     0.718905      113.356 
7.88550e-05     0.267067      38.1572 
7.79894e-05     0.732700      112.891 
7.80068e-05     0.167705     -26.5651 
7.72496e-05     0.288141      38.6598 
0.000153205     0.752396      113.499 
0.000152209     0.420268      124.824 
7.64931e-05     0.174929     -30.9638 
7.57966e-05     0.297741      40.9144 
0.000148376     0.183098     -34.9920 
0.000149180     0.766176      113.051 
0.000291198     0.337083     -147.724 
7.43560e-05     0.187949     -28.6105 
7.39522e-05     0.405278      128.991 
0.000146438     0.307774      43.0251 
0.000357314     0.785891      113.629 
7.27779e-05     0.403609      131.987 
0.000281942     0.192094     -38.6598 
7.16404e-05     0.392588      136.548 
7.13473e-05     0.318198      45.0000 
7.04107e-05     0.393732      139.635 
7.01895e-05     0.328976      43.1524 
0.000205674     0.349857     -149.036 
6.93369e-05     0.387105      144.462 
0.000337423     0.805683      114.179 
0.000203179     0.339411      45.0000 
0.000135421     0.396011      142.696 
0.000201645     0.201804     -41.9872 
6.63470e-05     0.391152      147.529 
0.000194395     0.357806     -146.976 
0.000130010     0.350179      46.7357 
0.000193091     0.213190     -39.2894 
0.000436052     0.399406      145.713 
0.000256743     0.819390      113.749 
6.38452e-05     0.212132     -45.0000 
0.000187574     0.361248      48.3665 
0.000305347     0.825545      114.702 
0.000420331     0.222991     -42.2737 
0.000299527     0.370473     -148.241 
0.000293625     0.372592      49.8991 
0.000117168     0.408044      143.973 
0.000175507     0.839196      114.274 
0.000115705     0.403887      148.671 
0.000224381     0.233345     -45.0000 
0.000440524     0.845473      115.201 
0.000219020     0.378583     -146.310 
0.000165631     0.384187      51.3402 
0.000269600     0.411886      146.889 
5.53162e-05     0.234307     -39.8056 
0.000609235     0.244182     -42.5104 
0.000129760     0.439118      97.8533 
5.33325e-05     0.409420      151.557 
0.000105794     0.382426      48.1798 
5.23812e-05     0.859069      114.775 
0.000249889     0.391152     -147.529 
0.000493680     0.865462      115.677 
5.17055e-05     0.381838      45.0000 
5.12294e-05     0.450250      91.9092 
0.000246798     0.416773      149.744 
5.06107e-05     0.392588      46.5482 
4.98100e-05     0.450000      90.0000 
0.000146246     0.392588      43.4518 
0.000369882     0.450250      88.0908 
4.81710e-05     0.422670      152.526 
4.75123e-05     0.424529      147.995 
9.34125e-05     0.393732      40.3645 
0.000572504     0.254558     -45.0000 
0.000386331     0.399406     -145.713 
0.000443497     0.465242      88.1524 
0.000271311     0.885508      116.131 
0.000474490     0.429796      150.751 
0.000176501     0.396011      37.3039 
0.000374883     0.892216      116.996 
0.000312676     0.480234      88.2101 
0.000164598     0.399406      34.2869 
0.000307849     0.265377     -42.7094 
0.000348516     0.265377     -47.2906 
3.98241e-05     0.891207      83.2338 
0.000366697     0.442945      151.699 
0.000152929     0.411886      33.1113 
0.000192938     0.899125      117.848 
7.73803e-05     0.907965      82.4054 
0.000348379     0.408044     -143.973 
3.82107e-05     0.403887      31.3287 
7.43755e-05     0.924905      81.6071 
7.43073e-05     0.912414      117.408 
0.000315613     0.919416      118.237 
0.000176617     0.416773      30.2564 
0.000106970     0.939747      81.7406 
0.000101428     0.465000      90.0000 
0.000134312     0.956831      80.9807 
3.40500e-05     0.480000      90.0000 
0.000161905     0.422670      27.4744 
6.64123e-05     0.275772     -45.0000 
0.000286552     0.926607      119.055 
0.000281573     0.456207      152.592 
3.28531e-05      2.56224      120.619 
6.31750e-05     0.429796      29.2488 
0.000126874      2.55463      120.329 
3.20290e-05     0.974076      80.2476 
0.000437702     0.276586     -49.3987 
0.000121678     0.988863      80.3948 
0.000239792     0.417043     -142.306 
0.000149157      2.54709      120.038 
0.000259746     0.933983      119.859 
0.000144882     0.436033      26.5651 
0.000186233     0.267067     -51.8428 
0.000192295     0.469574      153.435 
8.49171e-05      1.00623      79.6952 
5.68745e-05      2.53961      119.745 
2.85473e-05      2.98323      111.534 
0.000136938      2.97484      111.909 
8.21964e-05      2.53220      119.450 
8.07309e-05     0.442945      28.3008 
0.000333960     0.954476      120.192 
0.000228544      1.02099      79.8457 
0.000226073      2.98877      111.801 
0.000546169     0.405278     -141.009 
5.27908e-05      2.52486      119.154 
0.000217474     0.449500      25.7100 
5.13344e-05      2.51759      118.856 
0.000192191     0.476707      155.854 
2.51511e-05      2.52357      118.393 
2.48009e-05      2.51038      118.556 
0.000507702     0.270416     -56.3099 
2.44915e-05      2.51647      118.093 
4.79691e-05      2.50325      118.254 
0.000435064     0.962107      120.964 
4.67621e-05      2.49618      117.951 
0.000318365      2.99437      112.068 
2.34394e-05     0.450999      86.1859 
0.000174012      1.03847      79.1770 
6.79611e-05      2.48919      117.646 
2.25288e-05     0.456207      27.4076 
0.000280469     0.490433      156.571 
6.54412e-05      2.48226      117.339 
8.49662e-05     0.463060      24.9048 
6.30606e-05      2.47541      117.031 
2.08859e-05      3.01392      112.225 
6.14959e-05      3.40275      114.758 
8.07894e-05      2.46863      116.721 
6.03825e-05     0.456946      23.1986 
9.78091e-05      3.41638      114.652 
0.000129710      1.05321      79.3302 
3.88456e-05      2.44849      116.565 
7.58404e-05     0.435000      90.0000 
0.000257792     0.969910      121.724 
1.95087e-05     0.451248      21.4477 
1.94353e-05      2.46192      116.409 
0.000128965     0.465242      20.7723 
7.48562e-05      2.44182      116.250 
5.59721e-05      3.42266      114.880 
0.000138137      2.98047      112.176 
0.000123312      3.43628      114.775 
7.16668e-05      2.43523      115.934 
0.000102822     0.435259      91.9749 
0.000166924     0.504232      157.249 
5.19327e-05     0.460136      19.0256 
6.87206e-05      2.42870      115.615 
0.000600456     0.982700      121.264 
0.000172647     0.275363     -60.6422 
3.37549e-05      3.44990      114.671 
9.77697e-05     0.474342      18.4349 
0.000110701      1.05054      80.1342 
3.32509e-05      2.41519      115.769 
7.96903e-05      3.44259      115.002 
8.01185e-05      2.40870      115.448 
1.63560e-05      3.45619      114.897 
0.000333837     0.268328     -63.4349 
1.62173e-05      3.58324      110.331 
9.08714e-05     0.436033      93.9452 
3.15965e-05      2.96659      112.286 
3.13720e-05      3.57806      110.106 
9.70477e-05      2.38051      131.424 
4.61971e-05     0.469814      16.6992 
3.07209e-05      2.40230      115.125 
0.000126666      2.96093      112.017 
4.49690e-05      3.58704      109.799 
0.000128904     0.518097      157.891 
8.85073e-05      3.43539      115.334 
8.38207e-05      2.78326      123.347 
4.46831e-05      2.38872      115.278 
2.98366e-05     0.465725      14.9314 
2.90365e-05     0.462088      13.1340 
7.09416e-05      2.38236      114.952 
5.50075e-05      1.04807      80.9421 
2.85577e-05      3.58199      109.573 
5.59207e-05     0.480234      14.4703 
1.41674e-05      1.06532      80.2724 
9.48401e-05      3.44184      115.560 
0.000115331     0.437321      95.9061 
5.41518e-05      3.59612      109.493 
7.97641e-05      2.36244      114.775 
6.10961e-05      2.38193      130.914 
7.88974e-05     0.476707      12.7244 
0.000157049     0.532024      158.499 
3.70770e-05      1.04581      81.7537 
3.84936e-05      5.75345      118.837 
5.01776e-05      3.59115      109.267 
5.06842e-05      3.42831      115.668 
1.28592e-05      2.36929      131.664 
8.64608e-05      2.34255      114.596 
0.000120021      5.77383      118.896 
2.49005e-05     0.473630      10.9541 
6.03565e-05      1.06289      81.0694 
2.44489e-05      2.79580      123.179 
5.87937e-05      2.94703      112.126 
3.65594e-05      3.96011      114.624 
4.83542e-05      3.43484      115.894 
1.22012e-05     0.545390      31.5043 
4.57198e-05      2.37062      131.152 
5.47005e-05     0.393732     -139.635 
1.20280e-05     0.471010      9.16235 
9.88716e-05     0.990568      122.005 
6.88698e-05      3.98001      114.730 
2.35021e-05     0.553376      32.8285 
5.80727e-05      2.32268      114.413 
6.94935e-05      7.41408      124.365 
2.33340e-05      3.58622      109.041 
4.59733e-05     0.468855      7.35238 
0.000104839      3.42135      116.003 
1.15784e-05      2.94142      111.856 
2.20322e-05      2.78762      122.920 
1.12706e-05      2.32892      114.749 
8.62831e-05      5.78697      118.824 
0.000357404      7.40171      124.431 
6.39775e-05      3.58136      108.814 
3.24696e-05      1.04377      82.5686 
2.20947e-05     0.570197      35.3625 
5.45875e-05      2.30903      114.567 
0.000223202      4.00624      115.030 
9.40051e-05      5.78224      108.294 
1.10312e-05     0.467172      5.52754 
3.27013e-05     0.382426     -138.180 
6.37330e-05      3.40787      116.114 
1.09469e-05     0.546008      159.075 
0.000404925      1.06066      81.8699 
0.000227509      1.74929      112.166 
1.08329e-05      2.93885      112.507 
7.21947e-05     0.540833      160.560 
2.12673e-05     0.465967      3.69139 
4.97379e-05     0.384187     -141.340 
0.000127852     0.261964     -66.3706 
1.06138e-05      2.94463      112.777 
1.05953e-05     0.591122      35.7067 
0.000132830      2.31530      114.905 
3.03794e-05      1.62997      6.34019 
1.04100e-05      2.05040      138.262 
3.05527e-05      2.96594      115.139 
4.02766e-05     0.441418      99.7824 
1.03200e-05      1.61506      6.39896 
0.000105925      2.04044      138.576 
1.02855e-05      2.93314      112.237 
1.02359e-05      1.19474     -38.8845 
2.01330e-05     0.609118      37.9987 
0.000125263      5.80734      118.882 
1.01774e-05     0.450000      0.00000 
6.83179e-05      1.00332      121.551 
9.64999e-05      1.20421     -39.4401 
1.00870e-05      2.49352      125.698 
5.30807e-05     0.372592     -139.899 
4.81752e-05      1.63169      6.86369 
0.000123459      3.59556      108.737 
1.95746e-05      2.92750      111.965 
1.08310e-05      2.79214      122.495 
1.92256e-05     0.450250     -1.90915 
1.93916e-05      5.76800      108.341 
0.000211393     0.426644      100.125 
9.01770e-05     0.555000      161.075 
9.65259e-06     0.618466      39.0939 
1.88080e-05      2.96530      115.787 
0.000115012      5.76330      108.199 
1.85839e-05      2.47809      126.384 
9.65338e-05      1.01125      122.276 
9.43260e-06      2.95880      115.526 
8.58149e-05     0.256320     -69.4440 
1.85433e-05     0.628033      40.1560 
9.35709e-06      3.60041      108.963 
9.30419e-06      2.91641      111.418 
1.80592e-05     0.436033     -3.94519 
9.44642e-05     0.429535      102.095 
6.99153e-05      1.64659      6.80131 
0.000102594      1.21380     -39.9869 
3.46959e-05      2.95839      116.175 
0.000102313      5.82773      118.940 
1.77719e-05      2.91433      110.487 
2.61428e-05     0.637809      41.1859 
3.44374e-05      3.42795      116.229 
8.32336e-05      2.03055      138.894 
8.83578e-06      2.79681      122.071 
6.35050e-05     0.437321     -5.90614 
8.58438e-06      2.90396      109.933 
4.97860e-05      1.29878      165.964 
2.98407e-05      3.75809      112.778 
1.66234e-05      2.90311      108.997 
4.07850e-05      4.03257      115.326 
8.54513e-05      5.18128      132.419 
4.00746e-05     0.647785      42.1844 
4.76356e-05      2.30171      115.062 
3.22681e-05     0.569210      161.565 
2.36943e-05     0.371383     -136.637 
8.21064e-06      2.95161      116.565 
3.97616e-05      1.66331      7.25320 
3.20654e-05      5.74905      108.246 
2.37570e-05      3.44141      116.118 
5.21916e-05     0.251446     -72.6460 
8.07886e-06      2.89826      108.716 
2.39732e-05      1.30250      165.324 
6.02380e-05      2.94493      116.304 
0.000145972      1.76319      111.982 
1.59620e-05      5.84086      118.869 
7.94951e-06      2.90303      108.060 
3.82788e-05      1.01934      122.989 
1.55176e-05     0.258940     -79.9920 
6.11559e-05      5.84811      118.998 
0.000146313      1.31701      165.489 
3.07153e-05      4.05902      115.618 
7.81787e-06      2.89842      107.779 
6.64540e-05      1.22349     -40.5251 
4.57534e-05      5.74437      108.104 
3.05481e-05     0.583459      162.031 
8.76842e-05      7.38934      124.497 
0.000270675      2.02072      139.214 
7.67579e-06      2.89935      106.841 
1.51260e-05      3.73846      112.655 
2.97980e-05      1.67819      7.18854 
7.57384e-06      2.89504      106.557 
5.67682e-05     0.657951      43.1524 
2.88215e-05      3.45489      116.009 
7.25713e-05      2.89698      105.619 
3.58431e-05     0.256759     -83.2902 
2.20004e-05      4.06553      115.809 
0.000120873      2.30810      115.399 
3.61498e-05     0.597746      162.474 
1.45491e-05      3.62398      108.585 
6.37310e-05      5.73012      108.150 
9.71449e-05      5.86124      118.926 
3.50000e-05      1.02758      123.690 
7.18560e-06      2.50931      125.020 
4.52038e-05     0.424264     -8.13010 
3.48801e-05      1.69500      7.62815 
1.38435e-05      3.74427      112.867 
7.35172e-05      5.17117      132.296 
2.80738e-05      4.08557      115.907 
1.37966e-05      3.61923      108.360 
7.12814e-05      7.58634      120.672 
4.07327e-05     0.612066      162.897 
8.79992e-05     0.247386     -75.9638 
6.90070e-06      7.57344      120.730 
3.89020e-05     0.439118     -7.85331 
5.85765e-05      1.23329     -41.0548 
2.01613e-05      2.93832      116.042 
5.24926e-05      7.37698      124.563 
0.000206718      2.88254      105.700 
0.000110673      4.09214      116.095 
3.24256e-05      3.46837      115.900 
6.76526e-06      1.07771      81.1932 
2.00512e-05      5.36189      114.988 
0.000125963      1.33154      165.651 
2.63064e-05      1.70987      7.56143 
2.61407e-05      5.71587      108.197 
4.44839e-05      1.03598      124.380 
1.94115e-05     0.668300      44.0906 
3.82766e-05     0.626418      163.301 
0.000101833      5.35557      114.842 
2.95252e-05      3.61453      108.134 
0.000123620      5.88163      118.984 
3.08937e-05      2.93176      115.778 
4.31196e-05      1.72676      7.98933 
2.41945e-05      3.76392      112.989 
5.32183e-05     0.679154      43.2101 
1.85839e-05      5.70162      108.244 
4.73999e-05      7.36463      124.629 
4.18511e-05     0.640800      163.686 
0.000203918      5.17022      132.531 
2.92605e-05      3.48187      115.792 
2.38772e-05      1.24319     -41.5761 
6.07044e-06      7.00697      124.711 
2.79609e-05      3.78360      113.109 
0.000104438     0.424264      98.1301 
2.90821e-05      5.68737      108.292 
3.48221e-05      7.57870      120.575 
5.98677e-06      1.08010      80.4069 
2.88322e-05      6.99844      124.610 
3.89682e-05      1.04452      125.059 
1.88538e-05     0.960117      89.1048 
0.000163519     0.426644     -10.1247 
1.74508e-05      1.74162      7.92074 
5.85752e-06     0.976038      87.3575 
1.13861e-05      5.16009      132.408 
3.99928e-05      1.34608      165.809 
1.14803e-05      1.11496      79.1436 
4.49399e-05      2.91826      115.907 
5.77958e-06      1.25445     -41.1215 
2.81532e-05     0.655210      164.055 
5.78202e-05      1.78273      112.249 
4.36574e-05     0.945000      90.0000 
