! Center RA: 12 21 31.69052,  Dec: +28 13 58.50011 (2000.0)
! Established model.
! Flux (Jy) Radius (mas)  Theta (deg)  Major FWHM (mas)  Axial ratio   Phi (deg) T \
! Freq (Hz)     SpecIndex
 0.0357462    0.0286526      45.0000 
 0.0160678    0.0202604      90.0000 
 0.0660799    0.0446338      63.0042 
 0.0163766    0.0446338     -116.996 
 0.0727842    0.0828082     -104.162 
 0.0132783    0.0397705      90.0000 
 0.0122443    0.0896014     -116.350 
 0.0296521    0.0802914      90.0000 
0.00259311    0.0202604     -90.0000 
 0.0115511      0.00000      0.00000 
0.00511194     0.101837      101.476 
0.00457993     0.107434     -111.727 
0.00511889    0.0202604      0.00000 
 0.0100172     0.121759      99.5784 
0.00887534     0.134233     -116.565 
 0.0118321     0.145849      105.824 
0.00802196     0.126477     -108.327 
0.00147624     0.170734      110.586 
0.00315545     0.152624     -113.162 
0.000145272     0.197181      114.029 
0.000278236     0.223834      116.479 
0.000988190     0.250509      118.638 
0.000265544     0.278118      120.301 
0.000518135     0.332828      122.759 
6.26894e-05     0.360880      123.723 
0.000122979     0.372066      126.223 
0.000352753     0.387976      124.520 
0.000714195    0.0397705     -90.0000 
0.000387252     0.399806      126.913 
0.000359658     0.416183      125.237 
0.00140291     0.145849     -105.824 
0.000565704     0.141777      98.2159 
0.000286025    0.0446338     -153.004 
0.000540526     0.350038      120.964 
0.000842500    0.0286526     -135.000 
5.20511e-05     0.420241      115.375 
0.000299352     0.447333      116.608 
9.92063e-05     0.322315      119.728 
0.000758963     0.465536      115.491 
4.46110e-05    0.0397705      180.000 
0.00128439    0.0202604      180.000 
0.000747065     0.675085      101.997 
0.000916598     0.491629      116.565 
0.000386357     0.304887      121.617 
0.000308388     0.518891      117.566 
0.000377171     0.315980      124.747 
0.000773371     0.679409      103.606 
9.61101e-05     0.344213      125.596 
6.44544e-05     0.545937      118.397 
0.000211039     0.563176      117.453 
8.43371e-05    0.0446338      153.004 
2.90315e-05     0.572799      119.251 
0.00113061     0.164706     -103.973 
0.000551580     0.590559      118.291 
0.000225865     0.411820      129.084 
5.37757e-05     0.810060      105.749 
0.000335257     0.288454      123.649 
0.000191280     0.829578      105.369 
5.10123e-05     0.797167      107.531 
2.57557e-05    0.0562440      135.000 
0.000254165     0.849131      105.006 
0.000360002     0.381773      84.0205 
0.00104773    0.0446338     -63.0042 
0.000289799     0.777872      107.981 
0.000141382     0.867991      104.673 
4.57951e-05    0.0828082     -75.8378 
0.000285287     0.659734      104.020 
0.000229935     0.424884      131.205 
0.000232111     0.887605      104.342 
0.000410147     0.474259      117.619 
0.000848710     0.618057      119.055 
0.000403097     0.784114      109.337 
0.000411438     0.384412      81.0157 
0.000253734     0.907248      104.025 
0.000120478    0.0998015      90.0000 
0.000444671     0.120062      90.0000 
0.000222673     0.438496      133.197 
0.000674546    0.0720098     -56.4755 
0.000405620     0.260826      122.547 
0.000401842     0.931206      104.943 
0.000182211     0.452074      135.000 
0.000310691     0.791053      110.721 
6.86578e-05     0.161111     -97.2243 
0.000307192     0.388092      78.0600 
4.19294e-05     0.640096      104.460 
0.000334865     0.184432     -102.453 
4.02159e-05     0.950796      104.628 
0.000146068      1.01296      99.0785 
0.000117835     0.466621      136.759 
0.000121153     0.780402      112.620 
0.000212294     0.101837      78.5245 
5.61490e-05     0.121759      80.4216 
7.03439e-05      1.16375      109.042 
1.19411e-05     0.635182      118.200 
0.000147651     0.955909      105.760 
4.53491e-05     0.450910      77.2126 
5.98928e-05     0.483985      119.745 
3.94429e-05     0.635505      102.756 
0.000262789      1.17052      109.980 
0.000389087     0.466502      120.980 
4.28262e-05     0.455823      74.7283 
9.17151e-05     0.481580      138.411 
0.000143128     0.369026      77.4333 
0.000240679     0.181229     -96.4188 
0.000121469      1.01006      97.9856 
0.000126346     0.475398      75.3715 
2.93676e-05     0.788112      113.929 
6.78350e-05     0.644631      119.728 
9.60845e-05     0.159832     -90.0000 
0.000114219     0.496341      139.906 
0.000165283     0.961610      106.922 
0.000117616     0.787330      117.224 
0.000340095     0.480914      73.0353 
0.000156060      1.17760      110.906 
0.000208265     0.815792      107.118 
0.000158891     0.373757      74.5128 
0.000270463     0.627763      120.611 
0.000111054     0.512006      141.366 
8.74229e-05      1.00745      96.8445 
3.93656e-05     0.631341      100.963 
0.000286828     0.180093     -90.0000 
0.000138773      1.16591      112.157 
8.64688e-05     0.107434      68.2729 
0.000214310     0.967701      108.070 
0.000109966    0.0286526      135.000 
0.000143814     0.527985      142.739 
6.73960e-06     0.126477      71.6725 
5.37091e-05      1.18470      111.788 
8.27945e-05      1.00523      95.6978 
1.87106e-05     0.796445      118.473 
0.000146522      1.17370      113.074 
0.000111259     0.354273      73.6379 
5.83823e-05     0.788772      120.468 
1.65181e-05     0.161111     -82.7757 
7.25930e-05     0.486965      70.8391 
6.02785e-05     0.980215      91.1844 
9.94022e-05     0.181229     -83.5812 
6.42306e-05     0.543641      143.984 
1.49032e-05     0.803259      108.858 
2.42822e-05      1.19237      112.692 
4.87148e-06      1.02938      97.8348 
2.85050e-05     0.506146      71.5919 
4.66332e-06      1.18945      106.606 
0.000575018      3.20663      113.530 
-0.000507978      4.68978      86.3305 
-0.000237866      10.7059      135.528 
0.000184628      4.04606     -6.52795 
0.000582642      6.37412     -101.765 
0.000441130      9.15177     -150.692 
7.81153e-05      11.7858      46.7182 
0.000280437      3.58738     -67.7268 
-0.000214766      7.13523      11.9693 
-0.000429145      9.32421      31.8495 
-0.000112062      10.6920      135.455 
0.000450076      12.0384      48.1001 
0.000328372      14.1006     -135.632 
0.000174586      9.88738     -140.417 
0.000168725      6.48463     -153.832 
0.000237774      11.7991      46.6492 
0.000346561      7.59425      152.896 
0.000104276      6.37829     -101.943 
-0.000229364      5.91986      124.814 
-0.000193427      2.77119      67.5043 
-0.000125525      5.16624     -13.6608 
-0.000167219      7.90332      120.068 
-0.000100591      7.12899     -63.8638 
9.91710e-05      10.0248     -52.3744 
-0.000102846      8.86884      92.5847 
-3.50942e-05      7.33399     -141.756 
0.000244226      6.98790     -43.8383 
9.81954e-05      1.84006    -0.630882 
9.83932e-05      11.2427     -63.4794 
-3.43871e-05      5.18593     -13.6080 
-0.000129260      9.10178     -160.890 
-0.000125405      10.8505     -46.4207 
9.56222e-05      2.27109     -70.4455 
6.63245e-05      8.19531      15.4258 
0.000214350      7.60073     -97.2541 
3.38639e-05      5.10061      159.576 
-0.000210225      7.33788     -141.973 
0.000184962      3.28793     -126.593 
0.000361446      9.62339      131.209 
-9.12471e-05      5.86684      172.755 
-3.27271e-05      7.35753     -24.4033 
0.000179813      6.98250      68.1380 
-6.31615e-05      5.84674      172.730 
8.81164e-05      8.60986     -19.8231 
6.03162e-05      3.62161     -67.2550 
-6.24532e-05      7.89384     -6.69265 
-0.000176028      8.86978      92.7155 
-9.28352e-05      6.26464      81.7428 
8.98706e-05      5.78043      66.9831 
0.000203821      10.5636     -162.595 
-9.22634e-05      9.41814     -100.522 
7.02249e-05      10.0090      155.945 
-0.000117219      4.11063      18.4316 
3.10948e-05      2.84586     -71.5698 
-8.73918e-05      9.92313      74.4504 
-0.000172825      7.71500      59.9786 
0.000116269      9.90242     -140.489 
-3.05077e-05      7.36592     -24.5468 
8.79129e-05      5.79608      64.2311 
0.000142427      12.0209      134.866 
3.03520e-05      10.4470      145.213 
8.70999e-05      7.77412      147.824 
-8.48351e-05      9.20273     -75.2714 
-8.51745e-05      8.87215     -14.2231 
2.99903e-05      2.85233     -71.1837 
-2.97292e-05      6.22061      9.25325 
0.000112166      7.95122      95.0515 
8.53107e-05      8.10504     -48.5995 
0.000112974      7.36704      167.774 
8.51305e-05      10.4416      145.062 
-8.50208e-05      8.42066      141.171 
5.57588e-05      6.09960      53.1315 
-2.92819e-05      8.81918      173.360 
-5.70267e-05      5.95610      66.4450 
-8.42764e-05      1.68308      86.6005 
8.43242e-05      2.82664     -71.4400 
-2.90349e-05      7.11541      12.0032 
-8.37267e-05      9.41447     -100.401 
-8.38364e-05      6.28469      81.7693 
-5.63009e-05      7.87371     -6.70984 
-8.28402e-05      9.08263     -160.848 
2.86871e-05      5.81433      64.3179 
-0.000110821      12.7997      131.135 
2.85800e-05      10.2635      40.0174 
2.86187e-05      10.1708     -46.3542 
-2.85577e-05      7.14719     -63.9353 
-5.46736e-05      13.9461      44.0713 
8.22576e-05      10.9940     -56.4271 
5.47527e-05      6.52920      112.324 
2.78982e-05      9.99116      155.899 
-5.49227e-05      10.8280     -66.3697 
2.78142e-05      10.4256      145.000 
5.47249e-05      10.2785      39.9475 
5.43862e-05      9.84092      101.012 
2.76002e-05      12.6340     -125.856 
-2.74099e-05      6.04840     -156.826 
-2.73541e-05      7.34578     -24.9603 
2.71383e-05      5.80492      64.0510 
2.70847e-05      7.45662      174.305 
-2.70626e-05      11.2790      145.183 
-2.69108e-05      7.13121      11.8160 
2.68680e-05      2.24430      3.58470 
-2.68103e-05      2.76941     -79.1772 
-2.67803e-05      8.89296     -54.0594 
2.66807e-05      12.0317     -54.5396 
2.65308e-05      10.8274      54.5486 
2.65230e-05      8.40417      84.1270 
2.64747e-05      5.46991      15.9162 
-2.64169e-05      4.51894      151.733 
-0.000280115      3.86914      54.2569 
8.82445e-05      2.12822      111.490 
0.000204575      3.81199     -65.1855 
-0.000145411      10.2811      169.235 
0.000169972      2.12115      111.000 
-0.000142268      9.03146     -71.8059 
-0.000229900      10.3003      169.256 
0.000223108      8.22221      145.305 
9.09272e-05      3.80384     -65.4522 
8.07667e-05      7.35684     -160.628 
0.000153789      8.39209      104.631 
5.11598e-05      7.50396     -88.1662 
5.19104e-05      7.36333     -160.485 
-0.000118249      8.60551      141.984 
0.000127376      9.81094     -74.6319 
-0.000119134      5.31949     -102.158 
-5.10862e-05      4.14909      18.2547 
0.000110520      9.18670      154.327 
-2.52708e-05      3.51209      104.514 
7.12408e-05      11.9889      58.2976 
0.000474867      10.3336      164.971 
-0.000126448      9.40532     -114.768 
4.83428e-05      10.3636      57.2914 
0.000122557      4.02793     -143.072 
-4.74898e-05      9.00589     -71.8881 
-0.000103595      5.80017      149.543 
-0.000143258      12.7423      45.4438 
2.43984e-05      8.38394      61.9670 
-0.000182796      10.9596     -66.1008 
0.000118728      12.0681     -138.226 
-8.96263e-05      4.16762      18.1707 
-0.000141717      10.2965      169.366 
0.000129750      6.52700      114.051 
-2.40901e-05      13.2113     -132.115 
-6.65367e-05      5.29518      116.467 
-8.42906e-05      3.89178     -154.754 
8.56501e-05      7.38770     -70.8786 
2.36253e-05      6.27660      157.522 
-6.50001e-05      3.48743      104.275 
-6.29601e-05      8.01960      161.382 
0.000124785      5.85732     -142.072 
-0.000179092      13.1831     -132.112 
-4.38162e-05      11.1832      113.951 
6.22961e-05      10.5338     -142.173 
-0.000141702      5.37769      125.464 
-2.29266e-05      11.1607     -133.766 
-0.000187491      9.63512     -123.655 
-4.27696e-05      8.21568      161.257 
3.89742e-05      6.68843     -52.4114 
6.03968e-05      5.61024     -141.659 
8.23141e-05      12.0551     -138.295 
7.90281e-05      13.6403     -43.0985 
4.35619e-05      9.38910      21.7572 
-0.000159070      11.1304      58.5957 
0.000146077      5.16955     -3.54521 
-2.16427e-05      8.99985     -72.0062 
-0.000180419      11.1185     -133.690 
9.78878e-05      8.69111     -47.4248 
3.98837e-05      10.3742      57.2008 
-7.71569e-05      13.6480     -134.345 
2.15608e-05      11.9694     -36.0279 
7.71936e-05      7.38172     -160.535 
2.11331e-05      4.73142     -26.3537 
3.90321e-05      6.28438      157.351 
7.47250e-05      8.52998      77.2695 
-2.10776e-05      8.10459     -19.9097 
-5.78307e-05      10.1202      48.8480 
-0.000106684      3.69695      144.242 
2.07806e-05      9.75209      53.5075 
2.06805e-05      11.4769      123.412 
0.000219272      9.39974      21.5984 
7.57086e-05      11.9858     -35.9709 
0.000126098      3.69096      29.9009 
-5.84130e-05      11.5486      120.607 
5.79844e-05      8.35716      65.0894 
0.000164107      11.9991      58.2183 
-5.78368e-05      5.63670      117.926 
-0.000124923      12.0003      127.349 
-7.12029e-05      8.12293     -19.8628 
9.06246e-05      9.68886     -10.7077 
-5.70003e-05      9.53883     -102.840 
3.65716e-05      4.74011     -26.5651 
0.000122225      8.13098      66.2099 
-0.000101001      10.3078      156.320 
-0.000102774      10.7005     -123.719 
1.95727e-05      5.50213     -88.5386 
3.68515e-05      11.5251      118.167 
1.93122e-05      13.0590     -136.674 
1.91370e-05      8.83050      140.974 
7.73608e-05      9.78869     -29.4970 
-5.42028e-05      5.96392     -156.273 
0.000213717      7.04934      177.071 
-3.57524e-05      7.57182      146.312 
-1.87701e-05      5.30460     -156.913 
5.21056e-05      3.80571     -66.1339 
-8.32973e-05      13.3971     -133.489 
5.13330e-05      12.7757      143.274 
-0.000299350      10.6168     -139.891 
0.000113268      10.6303      114.924 
-0.000151357      8.48317      164.127 
-1.82499e-05      5.33435     -101.901 
3.35888e-05      8.23826      145.382 
0.000295074      13.8885      45.6983 
-0.000181193      11.5590      120.694 
-5.00814e-05      7.54419      110.647 
1.77545e-05      13.0598     -136.800 
-0.000126509      13.1696     -132.046 
-1.76374e-05      7.45404     -24.9165 
4.69502e-05      8.81477      140.891 
6.58190e-05      8.36704      65.2737 
0.000159705      9.48627     -163.592 
0.000105455      10.9924      114.282 
1.74059e-05      8.51472      77.1064 
1.73821e-05      10.1479      38.5182 
-4.91177e-05      9.46134      69.4594 
7.53398e-05      10.4994      28.8108 
1.71405e-05      10.8135      26.4690 
0.000203051      11.8825     -33.0498 
-4.84930e-05      10.7299      145.096 
-0.000141964      9.53451     -102.726 
6.21442e-05      9.77886     -111.476 
1.69330e-05      6.71528      29.2374 
1.68811e-05      10.2002     -90.3372 
1.68407e-05      10.9561      36.9123 
-0.000102898      12.7978      131.263 
-3.22310e-05      12.5880      134.099 
-1.67712e-05      5.32325     -156.999 
-1.67592e-05      4.18086      17.8301 
-6.80664e-05      5.38947      125.640 
0.000183180      10.3120     -33.2911 
6.02817e-05      9.20496      154.381 
4.73572e-05      13.1198      138.462 
3.23385e-05      10.0070     -166.240 
-8.80606e-05      12.8718     -133.866 
0.000126384      10.1327      38.5869 
-4.58917e-05      9.92527      106.023 
-4.74410e-05      12.5177      134.028 
1.64076e-05      7.38109     -71.0272 
-6.08875e-05      5.94606     -156.198 
4.37495e-05      7.62232     -117.842 
5.51533e-05      7.19659     -124.928 
0.000107892      10.8782     -123.224 
2.94591e-05      9.74050      53.5998 
-5.93453e-05      8.75770      25.5682 
1.61101e-05      9.57503      71.4898 
8.49813e-05      9.70803     -10.6863 
4.52863e-05      11.3886     -39.0820 
0.000275840      12.1483     -44.3994 
3.01998e-05      9.80559     -74.7460 
3.02642e-05      10.9758      36.7030 
7.11672e-05      8.67923     -47.7087 
8.36944e-05      9.89857     -93.4769 
-4.26757e-05      9.41942      45.6875 
-4.34524e-05      12.7281      45.5088 
1.55870e-05      9.71574     -32.2183 
-1.55217e-05      4.75096     -130.728 
7.07792e-05      12.0016     -35.9162 
1.55191e-05      6.72312      29.0024 
1.55055e-05      10.2204     -90.3365 
1.54640e-05      5.63765     -141.626 
-1.54657e-05      7.44393     -25.1184 
-4.46423e-05      12.8259      131.269 
-4.38368e-05      13.9817     -132.914 
-0.000103612      13.6477     -134.465 
-0.000131389      12.0122      127.423 
1.52693e-05      8.55946      116.805 
-1.52551e-05      5.27705      116.565 
7.78662e-05      7.85197     -8.78987 
-1.51560e-05      4.33353     -172.838 
-1.51411e-05      4.30914     -23.2300 
-4.20309e-05      11.2005      25.3770 
-0.000119644      8.46440      164.091 
0.000120490      8.69897     -5.41011 
-0.000203164      12.8220      132.851 
-4.29915e-05      7.53707      110.503 
-4.27769e-05      8.06397      5.97691 
-0.000230692      11.9562     -140.159 
6.63285e-05      10.0785      79.8279 
-2.28177e-05      11.1409      58.5068 
-5.07564e-05      8.32682      68.7327 
1.48194e-05      11.2261     -64.1201 
-0.000159891      12.8083      132.785 
-0.000245285      13.6335     -134.405 
-6.60158e-05      10.7186     -59.1257 
2.87327e-05      5.85298      167.772 
-1.46571e-05      10.1335      48.7618 
5.14676e-05      10.0266     -166.267 
-9.17550e-05      13.4111     -133.551 
-6.47962e-05      10.7466      145.158 
6.29534e-05      10.2206     -90.4501 
-0.000101697      12.5036      133.962 
0.000126797      7.86498     -128.908 
0.000195272      10.0942      79.9607 
6.79155e-05      8.08175      1.13321 
-1.43747e-05      5.33405     -157.284 
2.82895e-05      12.2145      146.623 
2.67600e-05      10.3571      57.1401 
-0.000224806      9.98593      88.0493 
2.66442e-05      9.69924     -32.2798 
5.19872e-05      9.38161      21.6423 
-2.57632e-05      10.3874     -106.097 
-3.95437e-05      5.30424      116.663 
-1.40408e-05      8.48022     -37.1386 
1.39284e-05      11.3763     -39.0057 
-6.74679e-05      9.46846      69.3446 
2.71249e-05      11.2172     -64.2132 
-8.85553e-05      10.7140      18.5022 
-4.01864e-05      9.46172      45.6009 
-0.000126897      4.40378      151.225 
-6.48785e-05      10.6893     -123.629 
-0.000290675      12.5450     -135.710 
-0.000199183      11.9142      138.334 
-1.36912e-05      5.81764      149.645 
-0.000106375      5.91966     -156.291 
-3.52113e-05      12.4213      46.5642 
-0.000165073      13.6488     -135.891 
6.17444e-05      7.85368      14.6045 
1.35404e-05      13.1332      138.396 
-1.35269e-05      8.43519     -129.803 
-6.34686e-05      10.9678     -66.0041 
0.000252949      7.68262      140.175 
2.40917e-05      10.3466      57.2308 
7.38234e-05      11.3605     -39.0700 
3.76762e-05      5.83318      167.730 
6.80210e-05      12.2315      146.676 
0.000212868      12.0180     -35.8596 
-0.000123403      11.5317     -121.236 
-2.60953e-05      8.70838     -98.1839 
-3.29625e-05      13.9443     -135.000 
-3.42018e-05      11.8947      139.911 
1.32411e-05      12.5724     -128.347 
0.000419078      11.9635     -51.7881 
2.49296e-05      10.9921      36.6399 
-7.04897e-05      8.44818     -129.909 
-0.000158334      13.9949     -132.973 
-1.29622e-05      12.9935      50.1826 
2.52871e-05      9.78599      148.454 
2.53847e-05      11.7819      58.8197 
4.77813e-05      9.13941      11.3598 
-2.53662e-05      11.5557     -122.919 
-5.70992e-05      12.7844      131.195 
-2.49884e-05      12.4082      46.7644 
8.12704e-05      11.0108      114.238 
-2.34485e-05      11.8923      139.773 
-2.42037e-05      6.77781      10.7128 
2.39732e-05      9.78629     -111.586 
-0.000104785      9.96569      88.0453 
-1.25754e-05      8.58120      82.0938 
1.25835e-05      13.1181      138.337 
0.000245205      12.5758     -128.218 
1.24919e-05      7.26666      71.7166 
-7.76534e-05      10.1411      130.601 
