! Center RA: 12 21 31.69052,  Dec: +28 13 58.50011 (2000.0)
! Established model.
! Flux (Jy) Radius (mas)  Theta (deg)  Major FWHM (mas)  Axial ratio   Phi (deg) T \
! Freq (Hz)     SpecIndex
 0.0505324      0.00000      0.00000 
 0.0183542    0.0150000      0.00000 
0.00908603    0.0212132     -45.0000 
0.000444849     0.330000      90.0000 
 0.0179967     0.315000      90.0000 
0.00638629    0.0212132      135.000 
0.00574522    0.0150000      90.0000 
0.00406853    0.0300000      90.0000 
 0.0173480     0.805683      118.951 
0.00244152     0.300000      90.0000 
0.000348897    0.0450000      90.0000 
0.000345025    0.0912414      80.5377 
0.00100937     0.106066      81.8699 
0.00517595     0.315357      92.7263 
0.00189869     0.120934      82.8750 
0.00341249     0.135831      83.6598 
0.00194416    0.0150000     -90.0000 
0.00359387     0.330341      92.6026 
0.00680098     0.138293      77.4712 
0.00284933    0.0300000     -90.0000 
0.00451633     0.150748      84.2894 
0.00224411     0.826090      119.358 
0.00199045     0.346302      94.9697 
0.000215461     0.664248      115.408 
0.00297426     0.361248      94.7636 
0.00357760    0.0450000     -90.0000 
0.00181056     0.644302      114.775 
0.00176612     0.839196      118.856 
0.00424342     0.624440      114.102 
0.00227966     0.852364      118.369 
0.000878273     0.165680      84.8056 
0.000527511     0.376198      94.5739 
0.000343255     0.286575      96.0090 
0.000926348     0.391152      94.3987 
0.00154849     0.406110      94.2364 
0.000486130     0.271662      96.3402 
0.00402007    0.0600000     -90.0000 
0.00313667     0.865592      117.897 
0.000762848     0.256759      96.7098 
0.00465718     0.273724      99.4623 
0.00203547     0.421070      94.0856 
0.00217019     0.630714      115.346 
0.000952480     0.610778      114.677 
0.000134928     0.288531      98.9726 
0.00223239     0.878877      117.440 
0.00343711     0.128160      69.4440 
0.00177913     0.872066      116.565 
0.00217197    0.0618466     -75.9638 
0.00270204     0.436033      93.9452 
0.00128230     0.637279      116.565 
0.00232735     0.885508      116.131 
0.00254400    0.0764853     -78.6901 
0.000873773     0.782304      122.471 
0.000599501     0.761610      122.125 
0.000916595      2.12476      104.723 
0.000786657     0.617191      115.942 
0.000519524      2.14704      105.396 
0.000734734     0.120934      60.2551 
0.00115951     0.898999      115.710 
0.000311695     0.644127      117.759 
0.000153774     0.452244      95.7106 
0.000479722     0.291247      101.889 
0.00113512     0.765000      118.072 
0.00157232      2.08823      104.136 
0.000781404      2.09195      104.534 
0.00156073     0.407492      96.3402 
0.000774145    0.0474342     -71.5651 
0.000177837     0.785318      118.523 
8.87389e-05     0.142302      71.5651 
0.000510929     0.798530      118.009 
0.000257525     0.152971      78.6901 
0.000551207     0.167705      79.6952 
0.000244009     0.811804      117.512 
7.97056e-05     0.825136      117.031 
0.000386836     0.832061      117.951 
7.63288e-05     0.590931      113.962 
0.000510035     0.845340      117.474 
0.000216846     0.182483      80.5377 
7.12114e-05     0.623899      117.181 
0.000206951     0.699714      120.964 
0.000474196     0.858676      117.013 
0.000201923     0.156605      73.3008 
0.000136354     0.597181      115.278 
0.000272945    0.0670820     -63.4349 
6.87485e-05     0.210535      85.9144 
0.000133518      2.10647      104.432 
6.76054e-05     0.240000      90.0000 
0.000675448      2.11026      104.826 
0.000321733     0.707549      122.005 
0.000304027     0.270416      93.1798 
0.000189425     0.422404      96.1155 
0.000126792     0.134164      63.4349 
0.000878987    0.0807775     -68.1986 
6.30191e-05     0.565442      111.801 
6.25218e-05     0.728234      122.381 
0.000294127     0.129035      54.4623 
0.000352233     0.439118      97.8533 
0.000349628     0.736376      123.366 
6.03968e-05     0.540833      109.440 
5.92338e-05     0.715612      123.024 
5.82728e-05     0.285394      93.0128 
0.000274561     0.456207      99.4623 
5.67619e-05      2.07005      103.835 
0.000111773      2.12863      105.113 
0.000375112     0.723896      124.019 
0.000649364     0.301496      95.7106 
5.52801e-05     0.494773      104.036 
0.000108969      2.04848      103.120 
0.000214215     0.127279      45.0000 
0.000826693    0.0948683     -71.5651 
0.000258734     0.473630      100.954 
0.000155946      2.03387      103.216 
0.000551559     0.905608      116.565 
5.24864e-05      2.16151      105.290 
5.16020e-05      2.20495      104.982 
0.000199255     0.117154      39.8056 
5.08605e-05      2.21944      104.882 
0.000294269     0.732393      124.992 
0.000149097      2.01927      103.314 
0.000242529     0.491350      102.339 
0.000148318      2.23394      104.783 
9.59591e-05     0.471010      99.1623 
4.83138e-05      2.11558      108.178 
4.80547e-05      2.00468      103.412 
0.000232848      2.24845      104.685 
0.000319852     0.129035      35.5377 
0.000182199     0.786464      124.902 
0.000749223     0.919048      116.147 
4.73313e-05      1.96563      105.945 
9.24366e-05      2.00125      102.995 
4.63567e-05      2.12984      108.052 
0.000133078     0.741097      125.942 
0.000399533     0.488365      100.620 
9.08044e-05      1.95121      106.066 
8.91644e-05      2.13454      108.435 
0.000173550      2.26296      104.589 
4.43998e-05      2.01257      102.482 
0.000128245      1.99793      102.575 
0.000738270     0.109202     -74.0546 
0.000287965     0.783023      126.431 
0.000438571     0.318198      98.1301 
8.37012e-05      1.94104      106.614 
0.000208822     0.120934      29.7449 
0.000125396      2.13933      108.816 
0.000277210     0.506014      101.976 
0.000122918      2.26679      104.956 
4.14935e-05      1.93680      106.189 
0.000120909      1.99472      102.155 
0.000120687     0.932537      115.741 
0.000442355     0.503115      100.305 
0.000515779     0.134164      26.5651 
3.99369e-05      2.15353      108.687 
0.000593863     0.939149      116.565 
0.000263137      2.28128      104.859 
0.000264618     0.771006      127.093 
3.92667e-05      2.14421      109.195 
0.000114949      1.92240      106.314 
0.000222031      1.99161      101.733 
0.000113449      2.15838      109.065 
8.22202e-05     0.520697      101.634 
0.000176534      2.16333      109.440 
3.63634e-05      1.92667      106.742 
0.000648909     0.335410      100.305 
3.57721e-05     0.759095      127.776 
0.000333638     0.517880      100.008 
0.000263869      1.90801      106.440 
3.52140e-05     0.795141      125.789 
0.000136883      2.29578      104.763 
3.48777e-05     0.735612      129.207 
0.000200405      1.98862      101.310 
0.000361907     0.952589      116.162 
3.44295e-05     0.828266      125.417 
6.78681e-05     0.724051      129.958 
0.000496168     0.123693     -75.9638 
9.97560e-05     0.840536      124.824 
3.35610e-05      2.17748      109.309 
6.64233e-05     0.128160      20.5560 
0.000250920      2.18249      109.680 
0.000129039     0.712618      130.732 
0.000373926     0.532658      99.7276 
0.000128210      2.29965      105.124 
0.000532713     0.142302      18.4349 
0.000154030     0.852892      124.249 
0.000265981      1.98573      100.886 
9.18646e-05     0.701320      131.532 
0.000325434     0.966075      115.769 
0.000232563      2.31414      105.027 
0.000200240      1.89363      106.569 
0.000116492     0.711354      132.436 
6.04054e-05     0.515485      98.3659 
0.000143111      2.18758      110.050 
2.94002e-05     0.861423      125.074 
8.14878e-05     0.547449      99.4623 
0.000269955     0.873742      124.509 
0.000402253     0.530330      98.1301 
0.000215169     0.700357      133.264 
0.000267123     0.979604      115.388 
0.000490319     0.128160     -69.4440 
0.000107895      2.20168      109.916 
0.000255384      1.98295      100.460 
0.000228312      2.33254      105.287 
0.000228911     0.138293      12.5288 
0.000272257      1.88940      106.133 
0.000219617     0.338415      102.804 
0.000293172      2.20684      110.283 
0.000171029     0.689511      134.119 
7.52673e-05     0.986129      116.175 
0.000298085     0.882326      125.311 
9.72246e-05     0.993177      115.017 
2.46461e-05     0.450999      93.8141 
0.000311392     0.562250      99.2110 
6.99780e-05     0.545183      97.9072 
0.000530776     0.152971      11.3099 
0.000155559     0.435259      91.9749 
0.000334582     0.999612      115.796 
0.000301954      1.98028      100.033 
6.93802e-05      2.35098      105.544 
9.14562e-05     0.700036      135.000 
2.25638e-05      2.22091      110.148 
0.000304103      1.87500      106.260 
0.000129650      2.43841      107.543 
0.000205553     0.323805      103.392 
0.000366336      2.22612      110.511 
8.68019e-05     0.678822      135.000 
8.48399e-05     0.138293     -77.4712 
2.16277e-05      2.34701      105.191 
0.000121997     0.689511      135.881 
4.17389e-05      1.00679      114.656 
0.000305771     0.891081      126.098 
9.78598e-05     0.435000      90.0000 
0.000197623      1.16499      101.889 
9.90516e-05      2.45725      107.771 
0.000211083      1.87086      105.819 
0.000295782     0.577062      98.9726 
2.03425e-05      2.33933      104.482 
0.000293982      1.01314      115.427 
0.000154044     0.142302     -71.5651 
3.91951e-05      1.96552      100.109 
5.81066e-05     0.668300      135.909 
3.89491e-05      2.33562      104.125 
9.22151e-05     0.420000      90.0000 
1.88982e-05      1.92398      100.784 
0.000109124      2.47614      107.996 
1.88264e-05     0.679154      136.790 
5.51197e-05      1.99252      99.5332 
0.000361300      1.17671      101.023 
0.000193479     0.150748      5.71059 
0.000108626     0.657951      136.848 
7.19923e-05      1.89743      101.399 
3.66593e-05      2.33201      103.768 
0.000158390      2.24018      110.376 
3.63417e-05     0.305941      101.310 
3.58963e-05     0.152971     -78.6901 
1.76876e-05      2.00731      99.4623 
5.15923e-05      2.32848      103.410 
8.47261e-05     0.309233      104.036 
3.49307e-05     0.195576     -85.6013 
5.15830e-05     0.647785      137.816 
0.000340277     0.420268      87.9546 
0.000196881     0.900000      126.870 
5.10404e-05      2.00490      99.0395 
3.42462e-05      2.48081      108.325 
9.82530e-05     0.141510     -32.0054 
6.71169e-05      2.23142      110.872 
1.71121e-05      1.89452      100.954 
1.70654e-05     0.210000     -90.0000 
3.34927e-05     0.210535     -85.9144 
4.96170e-05      1.88272      101.489 
8.22501e-05     0.626598      137.911 
0.000142460      2.49978      108.544 
0.000214890     0.591883      98.7462 
0.000125911      1.02671      115.067 
0.000125058      2.01972      98.9726 
3.25063e-05      2.32505      103.050 
7.93028e-05     0.225000     -90.0000 
6.32154e-05      2.50792      170.707 
3.14190e-05      2.07239      112.109 
1.61770e-05     0.731932      135.830 
0.000193616      2.24545      110.735 
0.000131578     0.167705      10.3048 
7.82063e-05      1.87979      101.041 
4.72668e-05      2.05286      111.879 
0.000106867     0.616644      138.945 
3.10981e-05     0.753143      135.807 
3.11619e-05      2.33966      102.967 
0.000204500      1.19144      100.886 
0.000116643     0.147733     -23.9625 
0.000117346     0.912044      126.304 
0.000232128      3.06709      151.680 
0.000255245     0.225499     -86.1859 
0.000113646      2.33634      102.609 
0.000220544      2.05850      112.267 
0.000207612      1.86507      101.129 
0.000190527      3.07515      147.550 
4.39649e-05      2.49312      170.651 
8.46269e-05     0.763970      136.591 
0.000139075      1.04031      114.717 
0.000153185      2.51879      108.759 
1.46318e-05      1.11324      104.036 
0.000319958      2.03226      98.4889 
0.000147811     0.606898      140.013 
2.81384e-05      1.10247      104.982 
2.77713e-05      2.49072      170.991 
0.000228675     0.606712      98.5308 
0.000155477     0.921005      127.057 
2.71189e-05      1.06161      113.305 
0.000203266     0.154434     -29.0546 
3.75932e-05     0.406110      85.7636 
0.000138831      2.25948      110.601 
0.000109086      1.10645      105.732 
0.000143582      2.47591      170.937 
7.71725e-05      1.20617      100.751 
6.29728e-05     0.785175      136.548 
0.000154922      2.33311      102.249 
9.67414e-05      1.20346      100.049 
0.000111662      2.53784      108.970 
0.000144891     0.171026      15.2551 
7.32868e-05      1.05396      114.376 
1.25920e-05      1.86224      100.676 
3.60033e-05      1.86060      106.390 
4.85989e-05      2.06423      112.652 
0.000231269     0.240468     -86.4237 
8.39400e-05      1.84750      100.763 
0.000169995     0.597369      141.116 
0.000177744      2.91730     -144.839 
4.78473e-05      2.04463      112.426 
3.59581e-05      3.06250      147.400 
8.08587e-05      3.57239      97.7218 
6.98391e-05     0.933019      126.501 
0.000332457      2.37739     -132.955 
5.68218e-05      1.03315      115.821 
5.74697e-05      2.54275      109.290 
1.17395e-05     0.774935      137.353 
0.000127115     0.407492      83.6598 
0.000198482      3.04178      147.485 
0.000180297      2.26480      110.956 
0.000189578      2.05040      112.813 
8.84451e-05      1.84476      100.305 
0.000197314     0.621550      98.3257 
5.38796e-05     0.796131      137.291 
0.000230285      1.21824      99.9262 
0.000163674     0.942019      127.235 
7.27547e-05      1.86489      106.832 
0.000165757      2.56188      109.496 
0.000169521      3.55361      97.2750 
7.30752e-05      1.95697     -85.1634 
1.09157e-05      3.57041      97.4833 
0.000102962      1.04667      115.463 
0.000273701      2.32998      101.889 
0.000143958     0.175570      19.9831 
4.14153e-05      1.82735      99.9262 
0.000108423     0.167705     -26.5651 
0.000173453      1.11061      106.477 
9.76306e-05     0.294703      104.744 
0.000130406     0.162250     -33.6901 
0.000186106     0.609118      142.001 
4.84007e-05      2.45876      171.227 
7.77210e-05      2.03010      98.0702 
3.88466e-05     0.807217      138.013 
2.98228e-05      1.80761      99.0715 
8.80262e-05      1.93970     -86.0091 
0.000119550      1.79047      98.6732 
5.19400e-05     0.185540      14.0362 
5.59576e-05      2.92596     -144.599 
0.000275073      2.05626      113.199 
2.84758e-05      1.62111     -128.991 
0.000169765      1.03977      116.565 
0.000118463      2.58105      109.699 
2.79612e-05      1.84622      106.521 
0.000468766      1.09869     -147.829 
0.000153631      2.27882      110.821 
0.000173893      2.26738     -153.265 
5.23444e-05     0.409420      81.5730 
0.000273829     0.189737      18.4349 
0.000154254     0.619556      96.9530 
0.000105696      1.61171     -128.577 
0.000167776     0.951170      127.954 
0.000196558      2.04496      98.0112 
6.04713e-05      3.02108      147.572 
0.000273315     0.276586      102.529 
0.000157061      1.85054      106.966 
0.000108359      3.55174      97.0350 
2.55135e-05     0.818428      138.715 
3.41831e-05      2.44394      171.174 
0.000113576      2.93820     -144.768 
4.24869e-05      1.93872     -86.4513 
4.23933e-05      2.58614      110.011 
0.000208270      1.23301      99.8061 
3.38964e-05      1.78827      98.1981 
0.000188047     0.174929     -30.9638 
0.000216028      2.36644     -133.202 
0.000110416     0.621007      142.853 
5.67320e-05      2.64970      105.767 
3.84219e-05     0.498623      96.9112 
0.000346392      1.77133      97.7870 
4.05438e-05      1.60507     -127.405 
0.000373347      2.60538      110.209 
0.000112725      3.00843      147.419 
2.38299e-05      1.90524     -89.0978 
6.89120e-05      3.01735      107.354 
7.88891e-06     0.808610      139.514 
5.38630e-05      1.59028     -125.789 
0.000266541      2.32693      101.527 
4.55019e-05      2.64566      105.455 
7.21838e-05      1.89006     -90.4547 
1.52151e-05     0.829759      139.399 
4.51258e-05      3.53504      96.8235 
0.000141334     0.634449      96.7890 
1.48144e-05     0.411886      79.5085 
0.000117748      1.35914     -137.684 
0.000127038      2.18506     -98.6864 
0.000249743     0.960469      128.660 
2.23840e-05      2.49131      163.202 
2.21911e-05      2.29284      110.688 
0.000377228      2.66414      105.680 
5.07998e-05      1.58156     -125.348 
5.54720e-05      2.28419      111.173 
2.12006e-05     0.820076      140.194 
7.30595e-06      3.74270      93.6766 
2.16136e-05      1.11253     -176.135 
0.000102376      3.02186      107.625 
0.000109817      2.47695      163.101 
0.000162584      3.53329      96.5819 
4.19726e-05     0.654007      143.393 
7.94111e-05      1.04657      117.300 
6.67277e-05      3.74177      93.4474 
0.000122310      2.25400     -153.094 
0.000108367      1.12750     -176.186 
2.07255e-05      2.95911     -144.699 
0.000318970     0.298873      107.526 
4.80252e-05      1.57293     -124.902 
0.000162297      2.98771      147.507 
0.000120898      2.06221      113.582 
6.75280e-06      1.83184      106.654 
3.30262e-05      2.04292      97.5946 
4.49336e-05      2.29818      111.038 
4.43729e-05     0.687059      143.881 
5.97954e-05     0.403887      74.9315 
0.000141562      1.83620      107.103 
5.17464e-05      1.56439     -124.452 
-0.000871892     0.120934      150.255 
1.28058e-05     0.831655      140.856 
6.59515e-06     0.666108      144.162 
0.000180236     0.181246     -24.4440 
2.53793e-05      2.36720     -132.689 
1.30227e-05      2.99226     -144.796 
5.84893e-05      2.49312      96.9112 
0.000143817      2.34408     -134.741 
9.00313e-05      1.24780      99.6888 
9.80516e-05      1.12859     -175.426 
5.97880e-05      1.94081     -85.5673 
0.000131467      2.05779      97.5394 
1.26704e-05      3.00453     -144.961 
8.86756e-05      3.02643      107.896 
5.65733e-05      1.87554     -91.3748 
3.55474e-05     0.649346      96.6325 
0.000148203      3.18226      87.8389 
0.000168537      1.38033     -137.643 
6.23816e-06      3.02543     -144.892 
2.39256e-05      2.28965      111.523 
5.44158e-05      1.55596     -123.996 
3.03636e-05      3.03771     -145.054 
7.28129e-05      3.74090      93.2181 
6.54362e-05      2.37825     -132.444 
6.49999e-05      2.30361      111.386 
1.11798e-05     0.699232      144.605 
3.47908e-05      3.05002     -145.216 
0.000146902     0.960469      91.7899 
0.000125947      2.06826      113.962 
6.49629e-05     0.720156      144.324 
7.83081e-05      1.14355     -175.486 
0.000110110      1.04031      118.413 
0.000108254     0.240000     -90.0000 
7.78569e-05      1.54762     -123.536 
8.46297e-05      1.24536      99.0085 
1.69108e-05     0.500650      98.6156 
7.65579e-05      2.18738     -99.0748 
0.000375626      1.76936      97.3058 
5.73513e-06     0.972227      128.108 
0.000255325     0.981555      128.797 
5.44474e-05      3.06235     -145.376 
3.26445e-05      1.18652      177.101 
0.000321352      2.32398      101.165 
7.13883e-05      1.94202     -85.1261 
3.22211e-05      3.81490      99.2771 
5.94116e-05      2.45826      163.334 
0.000149737      3.82838      105.452 
0.000151807      3.03108      108.166 
3.13003e-05      2.99580      147.265 
0.000114793      3.51506      96.1242 
1.58238e-05      1.14483     -174.738 
8.55030e-05      1.53938     -123.071 
5.92339e-05      1.78305     -100.176 
1.04519e-05     0.393732      72.2553 
6.95238e-05      3.07471     -145.535 
0.000112271      1.15976     -174.806 
0.000146478      1.81748      106.790 
3.93814e-05      1.18737      176.379 
9.47337e-05      3.81735      99.4993 
0.000231608      3.19725      87.8491 
3.49436e-05      1.78620      97.7218 
3.00529e-05      3.72511      93.0007 
5.17902e-05     0.398560      70.2011 
0.000100027      2.07440      114.341 
6.57369e-05      2.50626      96.5295 
0.000127879      2.07076      97.0735 
0.000114979      1.08602     -147.407 
1.48619e-05      2.98319      147.109 
7.39158e-05     0.175570     -19.9831 
