! Center RA: 12 21 31.69052,  Dec: +28 13 58.50011 (2000.0)
! Established model.
! Flux (Jy) Radius (mas)  Theta (deg)  Major FWHM (mas)  Axial ratio   Phi (deg) T \
! Freq (Hz)     SpecIndex
 0.0598743    0.0202604     -90.0000 
 0.0212551    0.0202604      0.00000 
 0.0381936      0.00000      0.00000 
0.000400809    0.0286526      45.0000 
0.000392950    0.0397705      90.0000 
0.00295641    0.0600310      90.0000 
0.00157689    0.0802914      90.0000 
0.00118673    0.0286526     -45.0000 
0.00297004    0.0446338     -63.0042 
0.00362924    0.0998015      90.0000 
 0.0114495    0.0633577     -71.3505 
 0.0177586     0.120062      90.0000 
 0.0101315    0.0828082     -75.8378 
0.00379213     0.140322      90.0000 
0.000627841     0.141777      81.7841 
0.00698991     0.159832      90.0000 
0.00822757    0.0600310     -90.0000 
0.000585964    0.0828082     -104.162 
0.00279908     0.420217      90.0000 
0.000246031     0.121759      80.4216 
0.000715029     0.181229      96.4188 
0.000468502    0.0802914     -90.0000 
0.000560316     0.399956      90.0000 
0.000768766     0.107434      68.2729 
0.00222322     0.101837     -101.476 
0.000146160     0.201375      95.7743 
0.00108805     0.204262      101.227 
0.000493705    0.0896014      63.6495 
0.00140861      3.92664      79.4288 
0.000114111     0.440193      92.6380 
0.000426686     0.116465      58.9729 
0.000324938     0.461703      94.9415 
0.000763721     0.223431      100.253 
0.000682630     0.121759     -99.5784 
0.000482201     0.400469      87.1001 
0.000350847     0.483985      97.1250 
0.00209294     0.100252      53.2159 
0.000388075      1.14844      82.9818 
0.000446772      3.94655      79.4827 
0.000646787     0.380236      86.9456 
0.000851899     0.486913      99.4914 
0.000556310      1.64159      46.9634 
0.000960792      1.22817      59.6906 
0.000739265      1.14614      83.9871 
8.97971e-05     0.120062     -90.0000 
0.000322373     0.140322     -90.0000 
0.00238061     0.506166      99.1272 
0.000240055     0.141777     -81.7841 
0.00235832      1.62783      47.4847 
0.000237766     0.360755      86.7805 
0.000202379     0.145849     -74.1761 
4.03795e-05     0.170734     -69.4145 
0.000360761      1.12674      83.8831 
0.000878722      3.06171      91.8680 
0.000412977     0.178866     -63.3275 
0.000227052     0.749560      170.783 
0.000357589      3.92297      79.7197 
0.000145495     0.152624     -66.8384 
0.000103084      1.24505      60.1438 
0.000960108     0.401929      84.3213 
0.000348087      1.25526      59.3417 
0.000492836     0.769565      171.024 
0.000136086     0.209153      106.680 
0.000302244      1.12476      84.9094 
0.000191320     0.161670     -60.2221 
0.000235090     0.983930     -153.454 
0.00155477      3.00065      88.8537 
0.000512990     0.381773      84.0205 
0.000290099      1.14420      84.9961 
0.000181305     0.141777     -98.2159 
0.000196566      3.99193      80.7732 
0.000248646      1.27273      59.8068 
0.000919841      1.01048     -152.921 
4.12404e-05      1.14266      85.9707 
0.000120855      1.16078      88.0366 
0.000426883      3.90304      79.6666 
0.000580965     0.844290      166.273 
0.000174443      3.06113      91.5030 
8.44252e-05     0.189835      108.435 
0.000173625      1.29029      60.2593 
0.000361010      1.18053      89.0166 
0.000418009     0.766666      172.520 
0.00121978     0.172194     -54.5784 
0.000408282      3.98873      81.0604 
0.000243435      1.33487      60.3510 
0.00121566      3.04088      91.5130 
2.73254e-05     0.145849     -105.824 
0.000276862     0.845593      96.7782 
0.000152885      1.35251      60.7756 
9.99312e-05     0.178866      116.673 
0.000245068      1.20004      89.0326 
0.000464535     0.424483      81.8699 
0.000142580     0.170734     -110.586 
0.000670240      1.72241      74.5106 
0.000145689      1.20401      57.8848 
0.000305399      1.12908      82.8608 
0.000216383      1.37909      60.4639 
0.000904716      1.98671      122.255 
6.88133e-05     0.170734      110.586 
2.32766e-05     0.863684      95.3341 
0.000257486      3.00031      89.2405 
0.000782665      1.36957      61.1741 
0.000766734      1.18753      57.3844 
0.000198445      1.22030      89.0487 
0.000153012     0.764371      173.970 
0.000445324      1.10660      83.7714 
0.000414354     0.865715      96.6199 
0.000145896      3.88384      79.6150 
0.000238123      1.49889     -148.657 
4.29392e-05     0.161670      119.778 
0.000214409     0.205897     -118.994 
-0.00138144      3.69142      75.8931 
0.000868961      2.36117      38.8077 
0.000845821     0.943196      148.004 
0.00114518      1.66971      46.9486 
0.000438019      1.75316      101.180 
8.15214e-05      1.23980      89.0637 
0.000112731      1.13167      81.8806 
0.000165462      2.66117      38.5892 
5.81412e-05     0.762509      175.485 
0.000115527      1.26053      88.1920 
0.000293140     0.926075      147.340 
0.000281939     0.993150     -152.409 
0.000825857      1.71711      75.1621 
5.72100e-05      1.17052      56.8499 
0.000231652      1.69826      74.9936 
4.91565e-05      3.02090      91.1386 
0.00126694      1.15956      57.6881 
7.39314e-05      1.77703      101.694 
8.78709e-05      3.86030      79.8565 
1.86278e-05     0.824622      165.938 
0.00170839      1.97597      121.759 
0.000194376      1.28078      88.2206 
7.27574e-05      1.57124      68.3358 
0.000139729     0.761182      177.005 
0.00118037      1.35992      61.9219 
0.00100151     0.829578      164.631 
3.58658e-05      1.80914      103.431 
5.22389e-05      1.16085      79.0823 
0.000372050      1.83343      103.877 
0.000202143      1.58939      68.5954 
0.000114432     0.134233      116.565 
0.000100675    0.0848966      45.0000 
0.000147594      1.46893      60.6327 
0.000119225      1.10459      84.8161 
0.000548188      2.73388      41.7289 
0.000423133      1.52611     -148.389 
0.000289561      1.85888      78.2138 
0.000156700      2.68965      38.6573 
0.000349930      1.19339      76.4356 
1.66548e-05     0.216445     -123.690 
0.000174171      1.30028      88.2473 
0.000188638     0.184676     -49.4492 
0.000112158      1.10299      85.8255 
0.000281197      1.74934      100.529 
0.000252933     0.760412      178.473 
0.000362487     0.244605     -125.006 
6.17547e-05     0.849131      164.994 
1.59870e-05      4.01119      80.8179 
0.000968727      1.59689      67.9186 
0.000231114     0.100252      36.7841 
0.000135226      2.19247      125.725 
0.000192550      1.10170      86.8765 
0.000357319      1.22833      73.9344 
4.30956e-05      3.83695      80.0900 
0.000257655      1.45910      61.3260 
0.000610884      1.50953     -148.001 
0.000167065      1.01986     -151.908 
2.95640e-05     0.169793     -45.0000 
0.000172826      1.32053      88.2742 
0.00186334      3.00112      88.4669 
0.000165058     0.116465      121.027 
0.000151982     0.848223      98.1373 
0.000420047      1.83839      104.490 
7.08843e-05      1.36499      95.0461 
0.000133741      2.18070      125.292 
0.000229418     0.184676     -40.5508 
0.000185724      2.20506      128.742 
0.000225008      1.12193      86.9328 
0.000424422      3.02137      91.5228 
0.000132004      1.36336      94.1980 
0.000105760      1.34034      89.1339 
0.000619244     0.760142      180.000 
0.000218620      1.74588      99.8996 
0.000100029      1.87872      78.3400 
6.26981e-05     0.116465      31.0271 
6.28708e-05      1.34078      88.3002 
2.51070e-05      3.81428      80.3394 
0.000120176      1.04695     -151.488 
1.27307e-05     0.100252      126.784 
0.000210398     0.113549      135.000 
3.56309e-05     0.466942      99.9013 
7.33487e-05      1.36207      93.3794 
-0.00144505      1.50334      33.0634 
2.45313e-05      1.14053      88.0017 
0.000380582      2.18930      129.074 
0.000249479      1.14142      86.9852 
0.000116748      2.71879      42.0131 
0.000103785      2.16906      124.856 
0.000102881      1.35970      90.0000 
0.000347875      1.69780      46.8984 
0.000704868      3.62063      81.4182 
1.20511e-05      1.35985      89.1463 
0.000346846     0.134233      26.5651 
6.10839e-05     0.702680      85.0992 
5.75663e-05      1.36103      92.5280 
0.000194039      2.33315      38.7461 
6.74863e-05      1.87487      78.9239 
3.88780e-05      1.35985      90.8537 
5.38663e-05      3.99523      80.4864 
0.00135256      3.15660      95.8122 
0.000394581      1.84357      105.100 
2.21285e-05      3.83351      80.3883 
3.33317e-05      1.36028      91.6754 
0.000165499      1.07446     -151.054 
0.000158805      1.74251      99.2433 
0.000623986      1.35050      62.6804 
1.10290e-05      2.70577      41.7061 
0.000106833     0.199903     -36.9129 
0.000209362      1.38011      90.8412 
0.000143160      2.69068      41.9932 
0.000134851      2.15797      124.431 
0.000206636      1.89476      79.0416 
0.000351433      1.71222      75.7932 
0.000511014     0.100252      143.216 
0.000153259      1.99259      121.463 
4.14625e-05      1.16165      87.0378 
3.04839e-05      3.85349      80.4386 
1.03811e-05     0.463888      97.4354 
0.000206161     0.271820     -126.016 
0.000447628      1.37996      90.0000 
0.000270693     0.420705      92.7603 
5.76288e-05     0.868284      97.9480 
0.000116483      3.97525      80.4381 
0.000329102      1.16287      86.0408 
0.000797695      1.73937      98.5845 
0.000113191      2.14658      123.984 
0.000377216      1.60433      67.2729 
0.000298760      1.98209      120.964 
9.62843e-06      2.73291      38.4559 
0.000202351      1.73984      46.3980 
0.000135051      1.44949      62.0287 
-0.000955543      2.23490      45.0000 
0.000533233      1.10137     -150.623 
9.48701e-06      3.87347      80.4884 
0.000132143      2.67621      42.2726 
0.000139560     0.144435      33.7726 
0.000286087      2.31797      39.0480 
1.77092e-05      2.77666      38.2729 
0.000248767      1.84875      105.683 
9.58711e-05      2.13573      123.550 
0.000128834      1.49327     -140.976 
1.77065e-05      1.91392      79.1527 
0.000225705      1.91021      79.7495 
3.34958e-05     0.888355      97.7673 
0.00131269      1.34166      63.4206 
0.000419613      2.17419      129.398 
0.000480072     0.739882      180.000 
0.000144619     0.284207     -129.321 
0.000366187     0.216445     -33.6901 
-0.000763166      1.11980     -161.237 
9.00275e-05      2.12460      123.095 
-0.000617073      1.10064     -160.898 
0.000107051      1.16438      85.0830 
3.07833e-05      3.95194      80.6790 
3.20867e-05      2.82045      38.0956 
9.64986e-05      1.95877      122.071 
5.02459e-05      1.38011      89.1588 
8.27871e-06      3.89272      80.5359 
0.000104671      1.18880      77.3849 
0.000137944      2.66126      42.5660 
3.23085e-05      3.91270      80.5846 
0.000270580      1.47759     -140.481 
-0.000165657      1.48640      33.4895 
0.000234351      1.40037      89.1710 
0.000260751      1.73187      75.9577 
9.93620e-05      3.93269      80.6329 
7.70646e-05      2.11361      122.635 
1.57458e-05      1.78200      45.9213 
0.000144293      2.06150      120.298 
7.87085e-06      1.82427      45.4333 
6.81349e-05      1.86666      45.0000 
0.000215873      2.05135      119.810 
7.54031e-05      1.94227      122.376 
0.000329407      1.40079      88.3731 
2.97315e-05      1.18309      86.1086 
3.71326e-05      2.83642      37.8431 
0.000156028      1.62304      67.5493 
2.25274e-05     0.422095      95.4065 
0.000129949     0.312731     -129.841 
1.48983e-05      1.72644      46.8669 
2.86989e-05     0.891319      99.0579 
0.000453669      1.85433      106.286 
7.08638e-05     0.909711      146.677 
5.65427e-05      3.88944      80.8303 
9.95763e-05      1.90671      80.3486 
5.63502e-05      2.10315      122.187 
0.000139945     0.443806      97.7739 
2.85454e-05      1.90916      44.5860 
0.000119372      1.93621      123.204 
6.31220e-05      1.89532      45.0000 
3.35890e-05      1.68402      47.4017 
4.90267e-05      4.00655      83.4074 
3.50318e-05      2.86439      37.9026 
0.000186834      1.18457      85.1670 
0.000320622      3.90944      80.8776 
8.54318e-05      2.64637      42.8627 
0.000427062     0.300155     -126.870 
0.000126013      1.67088      47.8942 
1.36312e-05      2.85245      37.5934 
8.68821e-05      1.90353      80.9276 
-0.000262475      2.67536      31.5591 
0.000162504      2.09243      121.718 
0.000189838      4.00427      83.6954 
0.000205108     0.899141      147.716 
0.000322730      1.93729      44.5763 
0.000147866      1.63088      66.8914 
0.000108175      2.87981      37.6642 
0.000318932      1.91929      123.535 
6.69872e-06      3.00065      91.1463 
9.01999e-05      1.19830      75.4938 
0.000414142      2.15857      129.739 
8.38398e-05      3.00031      90.7595 
5.41431e-05     0.910591      98.8646 
0.000443955      1.72707      76.6098 
7.00925e-05      1.90044      81.5308 
1.28063e-05      1.61227      66.6088 
0.000110917    0.0896014      153.650 
0.000644271      1.89757      82.1359 
0.000200107      1.46259     -139.995 
0.000156266      1.63894      66.2399 
2.38619e-05     0.930615     -151.803 
6.11016e-06      1.62042      65.9513 
0.000252362      2.08185      121.244 
6.96868e-05      2.63210      43.1516 
0.000269006      1.42100      87.5788 
0.000252104      2.89588      37.4192 
3.35315e-05      1.16629      84.0913 
0.000489422      4.02441      83.7271 
-0.000113683      3.71107      75.9694 
9.27353e-05      1.18645      84.1921 
0.000113662     0.740159      178.431 
0.000125202     0.810060      164.251 
0.000210072     0.921556     -152.872 
2.77553e-05     0.720372      180.000 
7.20537e-05      1.51559     -149.041 
0.000217452     0.882079      147.013 
0.000147897      1.64690      65.6187 
5.05775e-05      4.09473      79.0237 
0.000268912      1.83489      106.464 
0.000282189      1.71934      98.6853 
1.63619e-05      2.61736      43.4550 
3.62058e-05     0.913801      100.073 
-0.000379925      1.92087      38.6563 
0.000203696      3.61767      81.7354 
0.000118051      2.04172      119.335 
2.14404e-05      2.32830      36.9696 
0.000651861      2.14360      130.073 
5.38500e-06      1.54340     -148.783 
0.000142987      1.91400      124.344 
1.06417e-05      1.65736      48.4139 
0.000116544      2.55967      45.3088 
0.000123889      1.53300     -149.431 
0.000364990      1.97988      44.1862 
0.000126835      2.34392      36.6828 
0.000103287      1.16855      83.1032 
1.01136e-05      2.07180      120.782 
0.000116333     0.871214      148.131 
0.000126953      1.33272      64.1996 
3.01056e-05      2.84586      34.6999 
0.000215026      1.65536      64.9800 
-0.000314928     0.319665     -90.0000 
5.33879e-05      2.03188      118.837 
0.000310578     0.327950     -127.657 
0.000197289     0.740950      176.923 
3.94933e-05      1.44345      86.0353 
0.000177147      2.83437      34.3632 
7.22773e-05      1.55047     -149.811 
-0.000282659      2.22062      45.3696 
3.85108e-05      1.46518      85.2997 
0.000225219      2.36020      36.3890 
0.000156458      2.91199      37.1770 
0.000112750      1.90306      123.859 
-0.000147409     0.999726      73.7415 
-0.000182512     0.313099      63.3735 
0.000126951      2.54546      45.6330 
3.25972e-05      2.02218      118.334 
5.54330e-05      1.48640      84.5830 
4.61815e-05      1.56737     -150.170 
4.04237e-05      1.34078      91.6998 
4.04167e-05      2.01300      117.845 
0.000147332     0.742313      175.361 
0.000104161      3.86710      81.0696 
8.44257e-05      1.61042     -151.835 
-9.51982e-05      2.65875      31.7791 
0.000142971      1.66403      64.3478 
7.43465e-05      1.50851      83.9179 
6.48537e-05      2.98087      88.4565 
8.16230e-05      2.00361      117.333 
-6.01651e-05     0.278118      120.301 
2.58703e-05      1.22288      74.8466 
5.14650e-05      1.71171      46.4032 
1.70941e-05     0.441522      95.1680 
2.15633e-05      1.34034      90.8661 
8.58213e-06      1.44713     -139.479 
7.64746e-05      1.62831     -152.171 
4.66530e-05      3.61481      82.0532 
3.36996e-05      2.55998      45.9501 
4.24483e-06      1.32130      92.6040 
2.51542e-05      1.53091      83.2442 
1.67953e-05      1.32053      91.7258 
1.25207e-05      2.12814      130.424 
4.15443e-06      1.63703      64.6801 
-0.00128793      7.44699     -68.7432 
-0.00122067      3.49909      61.6818 
-0.000969529      8.89340     -7.36367 
-0.00115401      9.10731      18.4349 
-0.00138818      10.5018      40.2092 
0.00162769      9.65657      143.675 
0.000348284      9.45612      99.7404 
0.000556569      8.51999     -67.6476 
-0.000956480      9.65816     -20.6118 
0.000449916      7.99403     -28.8723 
0.00148671      9.45284      99.6238 
0.000744205      10.2348     -56.9624 
0.000224264      2.89897      27.9713 
-0.000224503      9.65105     -20.4992 
-0.000529101      9.83257      43.4353 
0.00108524      7.98427     -28.7450 
0.00117443      9.60523     -96.6981 
-0.000722440      4.06695      140.984 
-0.000511877      9.10093      18.3139 
0.000604972      3.67196      55.8780 
0.00135634      13.1422     -40.1851 
0.000689543      9.71437     -147.357 
-0.000510223      6.12635     -144.698 
-0.000895651      8.23405     -8.65883 
0.000423682      5.37585     -154.200 
-0.000497513      3.54409      126.736 
-0.000578138      10.1091     -172.382 
-0.000105333      7.51363     -13.7032 
0.00150916      5.36739     -154.388 
0.000747970      10.2458     -56.8674 
0.000188846      2.88109      28.1603 
0.000733865      12.5736      48.9321 
-0.000194404      3.88279      2.07110 
9.84130e-05      3.29627     -52.6501 
0.000440844      9.76524      58.6527 
0.000975643      10.5062      130.911 
-0.000614685      7.43966     -68.8886 
0.000516686      9.82858     -161.860 
-9.58917e-05      8.50069     -138.435 
-0.000610368      11.4539      38.0501 
-9.44684e-05      9.81865      43.3495 
-0.000451361      9.66531     -20.7242 
-0.000526356      8.48554     -138.345 
9.32388e-05      3.29257     -52.1559 
0.000173159      9.44766      145.435 
0.000346846      7.86482     -48.6089 
0.000832646      11.0451      59.5343 
-9.16865e-05      4.25185      127.355 
0.000519398      10.5802      16.5868 
-0.000351920      9.83339      43.2684 
-0.000344405      4.08271      141.163 
-0.000418563      2.91024      66.0720 
-8.97735e-05      8.23712     -8.79815 
0.000335040      3.68337      55.6171 
-8.73864e-05      3.86254      2.08196 
0.000167413      5.75643      45.7077 
0.000247202      3.28018     -52.4354 
-0.000248874      6.20937      136.175 
-0.000328649      11.2418     -41.0323 
0.000253564      7.08200     -35.5779 
-0.000249127      10.5504     -109.261 
8.57211e-05      7.48651      139.117 
0.000249612      10.7399      162.104 
-0.000246916      9.83472      123.302 
-0.000246018      9.67223     -20.8323 
-0.000245081      8.21402     -8.68010 
0.000244135      7.47120      139.015 
-0.000161030      6.09872     -144.748 
0.000244129      10.6817     -41.6596 
-8.22172e-05      7.51317     -153.778 
-0.000161626      9.83375      43.1045 
0.000160886      7.09849     -35.4828 
0.000160116      9.37028     -68.1969 
-8.07707e-05      3.51618      126.679 
-8.00946e-05      4.09497      140.950 
-7.95261e-05      11.2727      50.8327 
-7.94703e-05      5.54729     -139.532 
0.000157295      8.28749     -160.256 
-7.88835e-05      9.12460     -8.69852 
7.84908e-05      9.04019     -162.887 
7.83319e-05      12.5864      48.8652 
7.79576e-05      6.43403     -5.89078 
-0.00123541      9.44884     -83.0714 
0.000873027      3.94807      24.2268 
-0.000268378      10.1791     -86.5090 
-0.000578341      9.84783     -18.1036 
-0.000452087      9.74035     -90.4723 
0.000249688      3.99454     -94.8816 
0.000238454      2.88109     -118.160 
-8.37556e-05      11.1953     -151.513 
-0.00118637      12.6088     -126.162 
-8.17913e-05      13.1941      137.579 
-0.000612562      13.6243     -43.3954 
-0.000437943      11.1782     -151.465 
