! Center RA: 12 21 31.69053,  Dec: +28 13 58.50012 (2000.0)
! Established model.
! Flux (Jy) Radius (mas)  Theta (deg)  Major FWHM (mas)  Axial ratio   Phi (deg) T \
! Freq (Hz)     SpecIndex
  0.154776    0.0202604      180.000 
 0.0330305      0.00000      0.00000 
 0.0127808    0.0286526      135.000 
0.00318495     0.101837      101.476 
0.00131822    0.0446338      116.996 
0.00260765     0.121759      99.5784 
0.00307500     0.141777      98.2159 
0.00736565     0.164706      103.973 
0.00639536     0.184432      102.453 
0.00656807     0.470689      102.241 
0.00773980    0.0202604     -90.0000 
0.00487986     0.204262      101.227 
0.00697000     0.495028      104.036 
0.000452637     0.227911      105.272 
0.000425164     0.247514      104.036 
0.000362473    0.0828082      75.8378 
0.000273611     0.266484      103.019 
0.000386403     0.120062      90.0000 
0.00195817    0.0446338     -116.996 
0.00135988     0.286260      102.105 
0.000457457    0.0720098      56.4755 
0.000851147     0.101837      78.5245 
0.00258503     0.519084      105.684 
0.00144107     0.306099      101.310 
0.000873407    0.0720098      33.5245 
0.00102413    0.0562440     -135.000 
0.000106149    0.0896014      63.6495 
0.000288200    0.0848966      45.0000 
0.000634675    0.0720098     -146.476 
0.000719255     0.538618      105.101 
0.000814628    0.0828082      14.1622 
0.000265697     0.325253      100.636 
8.58692e-05     0.329594      104.100 
8.55370e-05    0.0896014      26.3505 
0.00372980    0.0286526     -45.0000 
0.000494831     0.544027      107.085 
0.000703667     0.286050      114.817 
0.00375892     0.569504      108.435 
0.000336861     0.313099      116.626 
0.000107384     0.304558      113.217 
0.000105955     0.268467      116.565 
0.000104654     0.323277      111.801 
0.000346496     0.250509      118.638 
0.000836278     0.550320      109.102 
0.000482167     0.341468      110.586 
0.000584996     0.223834      116.479 
0.00158189     0.360505      109.453 
0.000445993     0.178866      116.673 
0.00148843    0.0397705     -90.0000 
8.44616e-05     0.152624      113.162 
0.000162160     0.594563      109.693 
8.13888e-05    0.0633577      71.3505 
8.09770e-05     0.740145      108.931 
0.000749737     0.765732      109.820 
0.00145324     0.576231      110.346 
7.90321e-05    0.0998015      90.0000 
0.000139109     0.205897      118.994 
0.000138210    0.0446338     -63.0042 
0.000885135     0.784114      109.337 
0.000594400     0.233573      120.932 
0.000190366      1.03223      98.9077 
0.000303914    0.0600310     -90.0000 
0.000640713      1.05225      98.7368 
0.00104216     0.379669      108.435 
0.000593283    0.0633577     -108.650 
0.000783502     0.810035      110.214 
0.000211695      1.07228      98.5724 
0.000304041      1.00559      107.367 
0.000824322     0.260826      122.547 
0.000340539      1.09157      98.4198 
0.000368211    0.0720098     -123.524 
4.85145e-05     0.986983      107.705 
0.000321426     0.101837      11.4755 
0.000411818     0.386554      111.285 
0.000517272      1.01158      108.422 
0.000345780      1.08889      97.4042 
0.000579090     0.120062      0.00000 
0.000321360    0.0848966     -135.000 
0.000237823      1.11162      98.2668 
0.000608558      1.01816      109.503 
0.000590642      1.10898      97.2693 
0.000213117     0.100252     -143.216 
0.00107476     0.817257      111.547 
0.000301015     0.404795      110.283 
0.000276159     0.271820      126.016 
0.000155893      1.01006      97.9856 
0.00138477      5.24786      120.962 
0.000667264     0.141777     -8.21587 
0.000331008     0.145849     -164.176 
0.000895414      8.82175      119.472 
0.000412373      3.65036      115.301 
0.000518578      3.61515      114.868 
0.000404761      4.09929      104.990 
0.00140819      1.95188      119.453 
0.000727310      3.71052      111.173 
0.000265634     0.563425      106.480 
0.000108487     0.300155      126.870 
0.000348107      1.05099      111.178 
0.000753457      1.12908      97.1392 
0.000403428     0.987333      96.9846 
0.000131100      4.01763      102.655 
0.000855659     0.161111     -7.22432 
0.000363372     0.164706     -166.027 
0.000208437      4.10438      105.253 
0.00116946      5.88126      91.1697 
0.000313440      4.23532      103.379 
0.000332454      6.65760      110.396 
7.60895e-05      6.78318      114.753 
0.000405227      4.98827      110.905 
2.47705e-05     0.113549     -45.0000 
0.000741904      6.79137      114.903 
0.000510680      4.25901      103.583 
0.000691348      3.28447      110.306 
0.000137051      3.98914      102.151 
0.000988529      7.36146      115.938 
0.000200448      3.51327      97.8567 
0.000113626     0.312731      129.841 
0.000131325     0.558204      104.559 
0.000132459      7.52174      105.739 
0.000200911      8.81180      119.357 
0.000675188      6.62456      110.128 
0.000176611      3.98507      101.877 
6.32849e-05     0.284207      129.321 
0.000443020      7.54124      105.697 
0.000172085     0.325575      132.478 
0.000408325      3.08353      87.3917 
0.000199729      1.08495      112.788 
0.000491027     0.985074      95.8148 
0.000184937     0.553458      102.529 
0.000209722      3.51056      97.5291 
3.28623e-05      4.10976      105.526 
1.95619e-05     0.164706     -13.9729 
0.000147977     0.184432     -167.547 
0.000347411      4.99553      111.122 
7.43417e-05      3.97906      107.256 
0.000502960      1.92354      81.0227 
0.000116431      5.47547      117.878 
0.000277971      7.24649      117.626 
0.000103998      8.78421      119.307 
0.000291252      3.96184      101.648 
0.000101089     0.339586      135.000 
0.000201609      7.53579      105.549 
9.95393e-05     0.220795     -174.735 
0.000150003      3.97310      106.977 
0.000442793      5.88171      91.3671 
0.000220577      8.63538      118.347 
3.33484e-05      6.81111      111.896 
0.000209384      3.10217      87.7820 
6.49956e-05      3.27775      109.986 
0.000216664     0.549419      100.466 
0.000268499      7.56075      105.656 
0.000327297      7.25555      117.763 
8.75902e-05      6.81869      112.054 
0.000129698     0.373757      105.487 
0.000285076      3.30982      110.518 
6.15240e-05     0.353651      137.236 
0.000127932      1.11872      114.279 
0.000211971     0.240977     -175.177 
3.08009e-05     0.824622      112.808 
0.000154922      7.03567      112.917 
0.000101174     0.184432     -12.4530 
0.000293931      1.98961      120.182 
0.000349248      3.10145      88.1560 
9.93302e-05      3.64174      115.013 
0.000166528     0.850533      113.557 
0.000110248      3.47784      103.640 
0.000109896      3.48786      97.2427 
5.71230e-05     0.368782      139.373 
0.000163288      7.56248      103.923 
5.44731e-05      5.39506      118.087 
0.000149410      8.61755      118.411 
1.43861e-05      1.89037      83.9160 
0.000108216     0.181229     -6.41879 
0.000107726      3.95780      101.361 
0.000107281      6.73564      115.880 
0.000133837     0.983289      94.6838 
9.31050e-05      5.22007      120.886 
9.30726e-05      5.02147      111.247 
2.64503e-05      3.81088      115.495 
4.00732e-05     0.384386      141.340 
1.34083e-05      6.61787      109.970 
2.63015e-05      1.10660      96.2286 
-9.09442e-05      5.09994      118.070 
2.61596e-05      4.08531      111.541 
3.90327e-05      1.92668      80.4496 
2.58300e-05      6.59192      109.864 
2.56390e-05      7.49748      105.630 
1.28308e-05      5.90246      91.5517 
1.28024e-05     0.459977      145.636 
0.00158742      5.81901      72.1889 
0.00178159      2.89878     -25.3180 
-0.00119605      7.64729     -70.7614 
0.000212340      13.2800      44.4529 
0.000929938      8.30090      138.320 
0.000693288      13.2945      44.3917 
0.00113737      7.26218      50.6985 
-0.000904727      4.61850     -73.1313 
0.000592677      13.2937      44.5129 
-0.000575034      7.26453     -52.7194 
-0.00101272      11.3417      134.858 
-0.000488589      6.91989     -109.064 
0.00117019      8.90106      76.0879 
0.000102891      6.40039      148.544 
-0.000727325      8.00586     -120.476 
-0.000201335      4.62420     -72.9000 
0.000297913      8.28634      138.230 
0.000725942      6.42825      148.485 
0.000373562      10.2691      46.1073 
-0.000698874      11.5937      146.968 
-0.000283288      6.66821      57.1218 
0.000868004      9.17691      67.8497 
0.000543134      4.67028     -137.084 
-0.000448027      4.75118      148.248 
0.000682343      12.0206      146.811 
-0.000351923      6.10944     -45.2687 
0.000183973      11.5344     -130.427 
-0.000347512      7.87395     -155.064 
-0.000676146      6.46058     -89.2879 
-0.000345733      4.31518     -40.1117 
0.000502780      11.7585     -58.6349 
-0.000439265      8.36569      33.1969 
0.000497155      7.46025      9.41306 
-0.000345410      9.97807     -165.488 
-0.000668520      3.11014     -164.710 
0.000671114      8.86836      135.823 
0.000254181      6.37165      47.7971 
-0.000337508      7.78326     -79.7875 
-0.000585860      6.66225      56.8809 
-0.000496255      12.6124     -37.3969 
-0.000334374      10.3370      126.026 
0.000414530      10.6599     -67.3792 
-0.000328214      3.95341      48.4857 
0.000413854      11.8209      123.475 
-8.75585e-05      3.60562      139.947 
-0.000323649      3.46853      165.645 
0.000486090      10.2545      46.0288 
-8.65148e-05      7.68983      122.572 
-8.61839e-05      9.64466     -138.110 
0.000165005      1.98286     -98.7066 
-0.000400871      4.77868      148.177 
-0.000323411      10.0071      173.343 
0.000319944      10.4949     -167.341 
0.000244044      8.31439      138.216 
-8.40136e-05      6.92628     -109.216 
-0.000160046      5.41887     -157.882 
0.000160649      7.61412     -67.6103 
-0.000240590      7.23614     -52.7498 
-8.30199e-05      8.60394     -37.3486 
-0.000241792      7.50061     -129.589 
-0.000159429      9.63164     -138.196 
-0.000314091      9.84836      59.8950 
8.22080e-05      11.5217     -130.354 
0.000159358      10.3089      127.672 
-0.000160592      6.31579      51.1733 
-0.000235441      12.1125     -51.5021 
0.000237066      9.62583      18.2866 
0.000157315      10.9482      133.814 
0.000235956      4.66881     -136.739 
-0.000157520      9.45265     -41.3117 
-0.000233770      13.6054      135.594 
0.000157818      8.35890     -24.6049 
0.000156852      8.19402      55.3407 
-0.000155649      9.91640      126.222 
-0.000232650      12.1394     -147.513 
-0.000316438      8.34874      33.2730 
-0.000155397      10.1594     -121.311 
0.000155555      12.3610     -45.7870 
0.000156214      10.6413     -73.0639 
-0.000231882      7.66619     -123.401 
7.89457e-05      6.07863     -97.9401 
-0.000155948      8.28455      169.289 
-0.000230083      10.0405     -179.542 
-7.84331e-05      9.92838      126.316 
0.000153964      7.59080     -40.4053 
-0.000152013      8.02315     -88.4297 
7.65812e-05      10.4545     -141.835 
-7.65723e-05      7.71718      122.621 
0.000150855      6.22431     -104.708 
-7.58441e-05      9.97447      46.7071 
-7.57676e-05      6.31882      51.4220 
7.55816e-05      10.6666     -72.9915 
7.53817e-05      9.92009     -76.3579 
7.50576e-05      10.4865     -164.400 
-7.48942e-05      11.8407      142.550 
0.000904828      10.2526      6.83478 
0.00155466      8.86088      55.0179 
-0.000590591      6.82536      59.1518 
-0.000718122      12.9684     -139.630 
-0.000853528      9.36361      61.1345 
-0.000313165      10.8865      47.6036 
0.000242571      8.30126     -115.703 
-0.000166211      9.37304      61.0300 
-0.000639914      12.9240      48.6391 
0.000641150      7.45708      52.3010 
-0.000238736      9.33585     -41.6114 
-8.31350e-05      3.84801     -133.317 
0.000591913      6.95014     -116.122 
0.000214335      8.84928      55.1254 
0.00106483      10.7036     -72.7159 
-0.000423839      3.84947     -132.899 
-0.000586245      9.74644      130.422 
-0.000801025      13.4665     -42.0503 
7.91099e-05      8.29249     -115.577 
0.000358528      7.41661     -154.609 
-0.000817352      13.5147     -130.740 
-0.000821970      11.3343      46.9289 
-0.000491082      9.98167      107.491 
-0.000216010      5.77276     -75.1473 
-0.000277694      9.39408     -136.554 
-0.000195746      6.40470     -50.1953 
0.000449074      4.13878      145.235 
-0.000147581      12.2241      40.7558 
-0.000391471      3.60879     -14.1171 
-0.000140535      11.4883     -123.137 
-0.000210754      3.58032      52.4936 
-0.000273675      8.77447     -78.5613 
0.000207593      7.42961     -132.925 
0.000475162      5.25755     -50.5598 
-7.30676e-05      3.77064     -107.285 
-0.000323344      9.30069      142.513 
-0.000206588      10.1485     -122.281 
-0.000135723      9.22179      12.0186 
0.000201663      8.29218     -115.883 
0.000139169      7.98105     -105.258 
-0.000262319      9.36445     -41.6217 
0.000203196      6.78271     -173.565 
-0.000198775      8.49505      28.8585 
-0.000446940      10.4520     -147.344 
-0.000139329      11.0174     -30.4283 
7.09718e-05      10.6783     -72.7874 
-0.000410334      4.19996      89.7236 
-0.000309010      11.1556     -124.260 
-7.04872e-05      4.30376     -99.8992 
-7.04717e-05      11.0813      147.828 
0.000356881      8.20497      131.344 
0.000197812      5.80921      22.6796 
-0.000447886      6.83281      59.3794 
-0.000431005      9.80292     -116.932 
0.000302878      10.0338      142.127 
0.000194359      9.77632     -86.7175 
-0.000354924      12.2068      40.9470 
-6.87207e-05      5.70583     -172.747 
-0.000238640      3.77648     -107.567 
-0.000524648      11.0648      147.775 
-6.78374e-05      4.93554     -171.378 
-0.000302178      2.31944      29.4345 
-0.000407338      4.30045     -99.6431 
-0.000250612      4.74783     -39.1887 
0.000190559      9.92164      152.247 
-0.000126279      6.14520      113.397 
-0.000182620      6.39175     -50.3348 
-6.59377e-05      9.09698      29.2144 
6.57892e-05      12.6477     -130.061 
-0.000389532      11.0451     -30.4657 
-0.000181157      10.0403      56.3717 
6.48192e-05      10.0496      82.3364 
-0.000239919      9.10482      29.0408 
-0.000122497      10.3655     -111.863 
-0.000119436      10.8721      47.5343 
6.34353e-05      7.96739     -105.430 
-0.000290887      3.58873      51.7930 
-6.32459e-05      4.95270     -171.637 
-0.000177680      9.98161      124.965 
0.000287417      4.91436      41.8682 
0.000112257      3.77783     -100.067 
-0.00133291      11.5080      59.1554 
0.000120726      12.6448     -130.188 
6.20509e-05      6.77050     -67.6019 
6.17406e-05      6.65289     -47.4364 
-6.16495e-05      9.89228     -122.535 
-0.000163055      5.72518     -172.772 
-0.000361569      12.9529     -139.572 
0.000952500      10.0523      82.2262 
6.13178e-05      6.14650      55.7415 
6.12882e-05      6.65292     -129.145 
0.000274523      10.9692      61.9413 
-0.000277271      2.91184     -84.8844 
-0.000354742      9.80364     -117.191 
-6.05845e-05      13.5015     -130.675 
0.000212906      8.12203     -145.331 
-0.000364845      8.77047     -78.6910 
-0.000115869      7.07259     -33.4625 
0.000323776      5.17635     -45.6284 
-0.000505718      11.6813      135.138 
-0.000299466      9.79639      42.3519 
-0.000434651      4.93265     -171.602 
5.97888e-05      8.61246     -143.692 
-0.000174662      8.50189     -138.625 
0.000165643      7.45747     -19.2590 
5.92963e-05      10.8241      55.3129 
0.000302325      6.77825     -67.4436 
-0.000162645      11.9570      130.592 
-5.86918e-05      10.1422     -122.439 
0.000214844      7.18523     -39.8056 
0.000168374      7.42863     -133.146 
5.83925e-05      6.19833      54.7187 
-0.000113658      10.0003      107.457 
-0.000165998      9.90279     -122.630 
-5.80361e-05      12.1181     -147.672 
0.000111988      6.92903     -122.866 
5.79078e-05      1.85369     -113.524 
0.000732945      7.44470      52.4244 
-0.000164432      5.64260     -45.4310 
-0.000113558      11.0893     -30.4484 
-0.000336038      7.08888     -33.3755 
-5.72159e-05      9.99281      125.057 
-5.72635e-05      10.4296      47.0963 
0.000200785      7.97281     -105.571 
0.000107136      7.40671     -154.406 
0.000158744      8.11052     -145.448 
5.67923e-05      6.65591     -128.900 
-0.000158899      3.59398      43.1895 
-0.000605792      8.66790      142.973 
0.000211737      3.73242      65.6352 
0.000762906      1.86187     -114.096 
0.000257799      10.8126      55.4012 
5.58550e-05      6.76257     -173.546 
0.000101323      6.90188     -107.018 
-5.53186e-05      12.3076      129.329 
-0.000312716      12.0136     -49.3898 
0.000107574      11.2325     -151.380 
0.000194649      5.83819      22.3457 
-0.000293782      4.42407     -69.3518 
0.000108105      12.6299     -130.245 
-0.000189469      3.86193     -133.536 
5.48146e-05      8.62819     -143.769 
-0.000428876      8.06567     -34.0863 
0.000187257      10.1027      118.238 
-0.000145441      9.31149      96.0414 
0.000143019      9.77750     -86.5989 
-0.000105414      4.96709     -6.00946 
-5.44071e-05      5.97240     -148.277 
0.000152380      6.21005      54.5661 
-0.000155624      9.12847     -169.648 
-0.000296013      8.51950     -138.903 
0.000271036      5.12760     -48.1617 
0.000103880      1.75637     -37.1343 
0.000244356      9.90371      152.192 
-5.35911e-05      9.11788      9.98094 
0.000692375      12.1288      140.959 
-0.000141886      10.3768     -111.718 
-5.34235e-05      10.4466     -147.192 
-0.000196857      10.4445      47.1719 
-9.92186e-05      9.37904     -41.5426 
-0.000181050      3.60120      130.944 
-0.000235289      12.3200      129.399 
-0.000225577      9.08711      29.1029 
5.28395e-05      6.17221     -97.4464 
0.000100030      10.8064      152.440 
-0.000236431      9.90962      2.54326 
-0.000439730      9.96502      125.032 
-0.000186175      5.98268     -148.118 
-0.000197600      6.22421     -156.315 
-5.20002e-05      12.0922     -132.183 
-5.19861e-05      9.32864      142.494 
0.000271833      12.1567      140.943 
0.000101730      12.5470     -130.928 
-0.000298104      11.1670     -124.346 
-0.000176154      5.54651     -148.719 
-9.93069e-05      6.50400      80.7985 
0.000190116      7.44198     -133.255 
-0.000509002      11.2005      134.856 
-5.10631e-05      3.59532      50.6492 
0.000312783      12.6276     -130.375 
0.000406078      9.92514      119.719 
-0.000349798      8.46694      40.6872 
-0.000487590      12.8753      133.238 
0.000211682      10.7568      113.561 
-0.000175478      10.7534     -109.446 
-0.000222010      11.8048     -39.5682 
-0.000222971      5.67125     -45.4289 
9.56049e-05      10.3105     -160.511 
-5.00221e-05      8.47008      29.1083 
0.000139196      6.93511     -122.634 
0.000582120      10.6076      74.4694 
-9.74019e-05      10.4691     -147.403 
4.97708e-05      11.2070     -151.195 
-0.000139064      9.89732     -122.790 
4.94311e-05      10.3274      170.300 
-0.000758416      9.50992     -79.8241 
0.000504964      12.2371     -56.8020 
-0.000459370      9.40764     -41.5531 
-9.68879e-05      3.59262      50.1944 
-0.000135411      10.0460      56.5319 
9.36160e-05      6.43530     -135.378 
0.000135382      6.17487     -97.6328 
0.000407309      6.76233     -38.3947 
-9.34912e-05      5.00954     -6.19139 
-0.000136179      8.98064     -171.418 
-0.000327818      5.32346     -149.777 
-0.00151716      12.0268     -49.3165 
4.81387e-05      11.3651      40.3592 
0.000140950      10.4160     -52.6463 
4.79400e-05      6.78046     -173.735 
8.97584e-05      10.0890     -19.3325 
-0.000175836      3.75862      169.881 
0.000176203      11.2147     -151.331 
-0.000293346      11.3334      46.7895 
0.000294951      12.5456     -131.057 
-0.000212690      10.3437      57.8757 
-0.000534761      11.0917      147.743 
9.19408e-05      9.29997     -101.284 
-0.000361006      8.88270      152.511 
-0.000136625      8.69628      142.947 
