! Center RA: 12 21 31.69052,  Dec: +28 13 58.50011 (2000.0)
! Established model.
! Flux (Jy) Radius (mas)  Theta (deg)  Major FWHM (mas)  Axial ratio   Phi (deg) T \
! Freq (Hz)     SpecIndex
  0.158443      0.00000      0.00000 
0.00767451    0.0202604      180.000 
0.00540547    0.0286526     -135.000 
0.00503811    0.0202604      90.0000 
0.00110319    0.0446338     -116.996 
 0.0104272    0.0562440     -135.000 
0.00378027    0.0397705      90.0000 
 0.0111807    0.0446338      63.0042 
 0.0569934    0.0720098     -123.524 
0.00957985    0.0600310      90.0000 
 0.0508956    0.0633577      71.3505 
0.00764831    0.0848966     -135.000 
 0.0145382    0.0896014     -116.350 
 0.0170019    0.0802914      90.0000 
0.00876085    0.0828082     -104.162 
0.00241333     0.247514      104.036 
0.00402872     0.271765      107.184 
0.000307412     0.266484      103.019 
0.00364187    0.0828082      104.162 
0.00116282     0.227911      105.272 
0.000264710     0.209153      106.680 
0.000129414    0.0633577      108.650 
0.00105162     0.253192      108.489 
0.000701463     0.126477      108.327 
0.000830696     0.107434      111.727 
0.00104830    0.0633577     -108.650 
0.00133653     0.291183      106.006 
0.00158903     0.178866      116.673 
0.000183008     0.197181      114.029 
0.00107316     0.286260      102.105 
0.000673988     0.152624      113.162 
8.47380e-05    0.0286526     -45.0000 
0.000643778    0.0446338     -63.0042 
7.84249e-05     0.134233      116.565 
0.000811626     0.161670      119.778 
0.000788718    0.0600310     -90.0000 
0.00170137     0.306099      101.310 
7.32184e-05    0.0446338     -26.9958 
0.00180736     0.310708      104.976 
0.000271361    0.0397705      0.00000 
0.000788019    0.0600310      0.00000 
0.00127302     0.329594      104.100 
0.000795381     0.188432      121.981 
5.13864e-05     0.392593      104.727 
5.10152e-05    0.0828082     -14.1622 
0.000149526     0.437032      105.945 
0.000612974    0.0802914      0.00000 
0.000458075     0.205897      118.994 
0.000459977     0.455823      105.272 
0.000485332     0.101837     -11.4755 
0.000329123     0.480914      106.965 
0.000541762     0.101837     -101.476 
0.000822727     0.121759     -9.57842 
0.000232771     0.475398      104.628 
0.000361529     0.815792      107.118 
0.00106342     0.216445      123.690 
0.000725459     0.500328      106.288 
0.000186262     0.948461      108.449 
0.00168166     0.107434     -111.727 
0.000326541     0.967701      108.070 
0.000100548     0.791300      106.132 
0.000250276     0.797167      107.531 
3.19381e-05     0.145849     -15.8239 
0.000502088     0.164706     -13.9729 
0.000212948     0.986983      107.705 
0.000119649     0.771858      106.550 
5.91378e-05     0.495028      104.036 
0.000170161      1.02868      103.499 
0.000163771      1.04767      103.250 
0.000605077     0.708758      106.420 
0.000293596     0.942245      107.281 
6.59784e-05     0.664933      105.714 
3.25227e-05     0.601667      105.406 
3.21527e-05     0.955909      105.760 
9.43320e-05     0.577108      104.072 
0.000453077     0.728215      105.970 
6.19875e-05     0.961610      106.922 
0.000207175     0.558204      104.559 
6.04605e-05     0.989328      104.047 
0.000353412     0.100252     -126.784 
0.000380234     0.753177      106.973 
2.94163e-05      1.00899      103.768 
8.46452e-05    0.0633577      18.6495 
0.000649376     0.533698      103.001 
8.14292e-05     0.929974      108.830 
0.000179099     0.954815      109.560 
0.000317689    0.0998015      0.00000 
0.000389105      1.07195      104.017 
4.76806e-05     0.936453      109.960 
0.000343155     0.961787      110.697 
0.000748005     0.513977      103.509 
0.000767033     0.747714      105.543 
0.000182897     0.141777     -8.21587 
0.000277400      1.09662      104.787 
5.71545e-05     0.969133      111.818 
0.000303889     0.995250      112.427 
0.000373720     0.325253      100.636 
0.000235296     0.184432     -12.4530 
0.000253901      1.11549      104.532 
0.000207244     0.228306      127.925 
0.000249196      1.02987      114.081 
0.000201262     0.209153     -16.6796 
2.68537e-05     0.493986      111.381 
0.000262504      1.14028      105.262 
6.15133e-05     0.501727      113.536 
0.000166370      4.63046      109.689 
0.000147562     0.199903      126.913 
6.08500e-05      1.03798      115.064 
0.000395869     0.227911     -15.2717 
5.84814e-05     0.871317      99.2676 
0.000241870      2.27098      107.956 
1.17936e-05      2.63478      105.410 
4.57674e-05      1.06428      115.608 
0.000506827      2.64023      105.834 
5.45806e-05     0.536933      116.565 
0.000151324     0.868284      97.9480 
9.46704e-05      1.07320      116.583 
0.000397783      4.63733      109.924 
0.000234569      1.16504      105.925 
9.90537e-05     0.322129      97.0919 
5.89194e-05     0.240790      131.589 
3.00804e-05     0.545937      118.397 
1.01298e-05     0.722903      104.426 
0.000451933      1.04410      69.8199 
0.000131519      1.03728      70.8704 
1.95734e-05      1.10008      117.019 
7.21341e-05     0.529508      100.864 
1.90698e-05     0.582967      120.989 
9.89788e-05      1.10943      117.952 
0.000114865     0.742542      104.036 
0.000154784     0.212689      131.281 
4.47183e-05     0.593248      122.605 
0.000172424     0.891319      99.0579 
0.000272304      1.18945      106.606 
0.000157629     0.300838      93.8616 
0.000159979      4.28904      109.617 
5.22290e-05      2.27730      108.441 
7.13266e-05     0.254690      135.000 
0.000237902     0.247514     -14.0362 
3.41132e-05      3.96034      113.199 
0.000394857     0.888355      97.7673 
0.000105770      3.95240      112.929 
2.36013e-05     0.643885      126.135 
6.37626e-05      1.14625      119.233 
0.000164374      2.25171      108.115 
8.19497e-06     0.696607      129.142 
2.40791e-05     0.506166      99.1272 
2.40099e-05      3.56215      130.215 
8.06831e-06     0.750414      131.757 
2.29596e-05      1.21473      107.248 
0.000140747      1.37920      106.857 
3.09485e-05     0.792690      132.967 
0.000307161      3.52105      129.934 
7.24360e-05     0.503350      96.8496 
0.000137003      3.92616      112.782 
0.000216537      3.49953      110.405 
0.000102164     0.128090     -141.183 
7.02755e-05      1.18335      120.484 
1.47215e-05     0.834763      134.017 
0.000139420     0.271765     -17.1841 
0.000284875      1.83652      128.364 
0.000367270      4.59465      119.466 
7.20527e-06     0.876557      135.000 
2.80221e-05     0.269397      138.048 
7.11622e-06     0.919648      135.893 
5.38025e-05     0.990521      136.658 
3.42117e-05      3.37532      114.132 
0.000360833      2.21320      83.7714 
5.69726e-05     0.604406      124.223 
0.000201484      4.31494      109.781 
0.000159719     0.910591      98.8646 
7.02802e-05      4.64401      110.151 
7.57432e-05      3.40950      114.608 
1.97406e-05     0.342244      173.327 
0.000155663     0.300155      90.0000 
0.000124876      1.99439      116.816 
0.000142808      3.61821      109.040 
6.59739e-05     0.501338      94.5500 
0.000109773      1.39860      106.617 
6.15649e-05      1.22122      121.610 
4.83114e-05     0.161670     -60.2221 
0.000200060      3.99637      120.026 
4.79556e-05     0.384412      171.016 
0.000255295      1.01862      136.582 
6.27716e-06     0.284207      140.679 
2.92300e-05     0.656037      127.565 
8.05881e-05     0.226037     -45.0000 
7.78779e-05      2.25809      108.604 
7.12605e-05      4.65103      110.385 
0.000112195      3.41799      114.917 
1.70755e-05      1.01639      126.202 
4.91209e-05      1.25953      122.668 
1.11481e-05     0.300155      143.130 
8.03634e-05     0.427819      169.183 
1.03733e-05      1.02804      127.079 
1.09257e-05     0.988088      125.947 
6.96589e-05     0.616029      125.781 
0.000135716      1.00012      126.887 
2.58166e-05     0.500168      92.3215 
1.04465e-05     0.120062     -90.0000 
0.000150089      4.02490      115.925 
3.44480e-05      1.79875      98.2991 
0.000166839      1.95854      116.045 
1.02572e-05     0.315980      145.253 
0.000192145      1.84386      93.7334 
5.15860e-06      1.43666      98.8030 
0.000183460      3.58598      108.534 
6.18583e-05      1.30897      124.419 
5.08575e-06      3.59247      108.840 
0.000107034     0.266484     -13.0188 
4.77652e-05      2.31895      105.003 
9.24672e-05     0.777872      107.981 
6.51400e-05      4.65813      110.619 
2.32458e-05      1.32223      110.358 
1.89682e-05      1.41448      98.1430 
4.91848e-05      1.40453      107.409 
1.85063e-05     0.332828      147.241 
1.88625e-05     0.480248      90.0000 
0.000148813      3.45323      115.373 
4.79113e-06      3.17948      111.400 
1.86322e-05      3.09734      111.593 
0.000137498      2.64562      106.240 
3.54963e-05      3.94484      112.668 
1.80585e-05      3.07852      111.731 
0.000133768     0.668581      128.941 
6.18428e-05      1.79605      127.770 
7.37357e-05      1.80179      98.9367 
9.63489e-05      1.34833      110.866 
4.48026e-06      1.06150      137.263 
7.13987e-05     0.480675      87.5843 
6.78258e-05      2.31379      104.518 
6.42751e-05      3.47350      110.208 
5.33939e-05      4.32158      110.024 
0.000220841      2.77329      101.234 
2.15169e-05     0.470689      167.759 
2.09705e-05      1.38919      96.6068 
6.74242e-05      3.85759      128.468 
5.25239e-05      3.07135      111.393 
0.000155656     0.280627      85.8598 
0.000173687      1.34833      125.326 
4.33570e-06      3.09022      111.256 
9.13793e-05      3.50638      110.704 
6.63742e-05      4.66503      110.843 
5.19805e-05     0.350038      149.036 
4.20730e-06      3.12732      110.992 
6.44268e-05     0.240790     -41.5891 
1.61872e-05      3.96285      112.559 
3.79800e-05      2.23890      108.769 
2.76761e-05     0.490508      168.260 
7.97496e-06      3.14624      110.860 
4.78036e-05      3.98157      112.447 
4.60689e-05      1.36336      94.1980 
0.000136288      4.02406      120.132 
2.20328e-05      1.38521      107.660 
4.22825e-05     0.291183     -16.0062 
0.000219283      1.80253      109.453 
2.48006e-05      3.12012      110.645 
0.000139105     0.553458      167.471 
0.000121220      1.01195      127.771 
2.80636e-05      1.84916      128.856 
0.000151591      2.90208      113.562 
3.37229e-05      3.06401      111.041 
0.000127926      4.58472      119.246 
9.56183e-05      2.33853      104.875 
5.73409e-05      4.67228      111.075 
4.75426e-05     0.481892      85.2660 
4.71700e-05      2.24525      109.240 
3.86670e-05      4.51699      112.927 
2.28890e-05      4.00030      112.336 
0.000122466      3.46196      115.676 
2.20089e-05      2.10938      111.692 
5.03518e-05      3.87023      128.703 
7.78533e-05     0.310708     -14.9760 
3.28038e-05      3.97388      112.177 
7.33891e-05      3.09474      110.421 
6.16296e-05      1.34390      94.2588 
6.16262e-05      1.65851      123.690 
7.52967e-05      3.35684      118.857 
2.10217e-05      4.52492      113.164 
5.80131e-06      3.88522      112.077 
2.65276e-05      3.07576      110.553 
8.61613e-06      1.03975      67.3770 
3.57591e-05      2.12822      111.490 
5.30394e-05     0.284207     -39.3213 
7.98104e-05      4.54287      113.067 
4.51452e-05      2.62075      105.954 
8.45633e-06      1.84529      94.3612 
4.87412e-05      4.28228      109.362 
4.61065e-05      4.67933      111.298 
8.38031e-06     0.483985      82.8750 
5.70716e-05      2.25201      109.727 
2.30629e-05     0.722868      131.634 
-0.000144888      1.93986      89.4016 
5.18389e-05      3.99265      112.067 
2.76532e-06      1.82503      99.4662 
2.58242e-05     0.470689      77.7585 
4.03044e-05     0.152624     -156.838 
2.85749e-05      3.87765      111.799 
1.28853e-05      1.37346      106.049 
2.12784e-05      1.82834      100.069 
1.63124e-05      1.03212      68.4152 
1.62639e-05     0.366905      150.604 
2.06800e-05      3.46713      129.388 
9.47981e-06     0.475398      75.3715 
1.97696e-05      1.36819      105.263 
-8.43480e-05      3.61564      105.727 
2.35242e-06      3.45431      129.128 
3.25226e-05     0.329594     -14.0995 
1.76881e-05     0.467874      70.0247 
-5.35592e-05      4.35266      107.104 
2.14451e-05      4.68673      111.529 
2.52117e-05      1.32370      94.3240 
1.67661e-05      2.36783      105.684 
1.04149e-05      2.62618      106.364 
1.46853e-05      2.25867      110.193 
1.86922e-05      2.89404      113.195 
1.44941e-05      3.06896      110.212 
1.03000e-05     0.300155     -36.8699 
1.23910e-05      4.27585      109.115 
2.10808e-06     0.480914      73.0353 
1.96023e-05     0.486965      70.8391 
8.14786e-06      3.55427      108.029 
6.11994e-06      4.01392      119.882 
8.08794e-06      1.86706      94.9109 
-1.01210e-05      1.52356      93.7559 
4.00722e-06      2.28471      110.494 
2.00625e-06      1.02448      128.666 
1.99430e-06     0.394577      149.485 
0.000263964      6.76122      107.737 
0.000139097      6.70168      110.434 
0.000239522      5.86194      121.468 
0.000107855      5.36572      119.720 
5.49943e-05      5.39299      119.793 
1.43289e-05      6.75796      110.256 
3.35598e-05      6.67589      110.337 
3.74008e-05      6.77698      110.197 
0.000369769      7.60418      109.676 
6.89440e-05      5.37542      119.901 
7.59392e-05      6.79529      110.140 
4.92223e-05      6.72455      107.301 
5.15525e-05      7.60339      110.962 
6.69375e-05      1.32053      91.7258 
-7.65605e-05      6.82949      106.153 
5.08888e-05      6.65057      110.232 
4.15731e-05      5.56159      119.512 
2.92373e-05      5.34813      119.828 
2.44625e-05      6.71877      107.142 
2.44008e-05      4.40172      112.714 
1.90988e-05      1.20887      106.331 
9.43019e-06      6.67612      106.535 
9.42604e-06     0.247514      75.9638 
9.39549e-06      5.55201      119.337 
9.39468e-06     0.709570      130.411 
0.000491212      12.4209     -143.775 
-0.000517660      10.7774      71.4969 
0.000412396      4.01388      97.4439 
-0.000262976      8.84355     -162.632 
0.000225762      12.0286     -39.0600 
0.000231637      9.28606      141.822 
0.000314084      5.80239     -55.8208 
0.000133388      7.01478     -35.3681 
-0.000320228      11.0115      123.143 
-0.000154704      10.8159     -114.006 
-0.000116823      4.09088      94.2077 
-0.000259478      5.67066      73.6130 
-0.000169413      12.1129      48.4154 
-0.000260633      9.97434     -123.054 
0.000207788      9.36706      17.7760 
-0.000121835      4.08944      93.9246 
-0.000229131      5.07633     -23.9393 
0.000118825      11.3866      116.160 
4.91702e-05      9.38635      17.7382 
-0.000202715      8.43816     -23.4669 
0.000130933      9.85782      102.061 
0.000155869      11.9226     -59.0053 
-0.000111588      3.70220      171.303 
-0.000133808      10.2087      2.35912 
0.000175806      10.7859     -142.002 
-9.07488e-05      9.69988     -60.4761 
-8.95101e-05      9.66481      163.778 
-0.000151867      2.90306      80.0872 
8.67289e-05      11.3245      48.7934 
0.000171221      6.31050      84.3633 
2.38181e-05      10.7377     -111.068 
0.000171420      10.3076      173.424 
-0.000128372      4.77069     -110.111 
2.34543e-05      6.98653     -35.3288 
-6.36035e-05      9.70988     -60.3721 
-0.000106167      12.2593      34.0266 
-0.000190347      13.0136      47.9261 
8.62850e-05      9.21273     -9.74926 
-8.44588e-05      8.86218     -162.670 
0.000125859      10.7494     -110.929 
-0.000105947      10.8173     -113.768 
-8.72298e-05      10.2922     -118.559 
4.39265e-05      6.97001     -35.4251 
-0.000103941      9.81168     -32.0054 
-2.22910e-05      5.10308     -24.0549 
-8.33989e-05      9.85450     -94.7741 
8.31594e-05      7.82554     -87.8018 
-0.000102893      7.70588      164.340 
-2.17272e-05      3.68292      171.257 
-6.17882e-05      6.63840     -12.5281 
8.25023e-05      9.33044      141.878 
-4.17330e-05      10.8715      35.4168 
8.12910e-05      11.1418      41.0705 
4.03489e-05      12.6362     -37.0883 
6.12596e-05      6.58688      35.2326 
6.09807e-05      6.13484     -105.894 
2.09736e-05      9.23595     -48.3363 
-4.09524e-05      9.87727     -147.822 
-2.08211e-05      7.88137      131.089 
6.00830e-05      11.3595      116.113 
-7.94277e-05      9.46196     -161.260 
-3.97787e-05      10.1951     -158.719 
-7.93852e-05      10.2838     -118.708 
3.98584e-05      6.94237     -35.3822 
2.04127e-05      7.70586      34.6387 
2.03944e-05      8.44818     -140.091 
-3.98487e-05      7.11718      145.998 
5.92015e-05      9.22300     -48.4269 
-5.92177e-05      10.1763     -60.3101 
3.99640e-05      5.55666     -61.8638 
-3.95786e-05      14.1183     -136.492 
3.92843e-05      7.72717      34.3475 
-3.89733e-05      13.7124     -131.690 
-1.97881e-05      4.45452     -152.740 
-1.97541e-05      8.31581     -172.257 
-3.84643e-05      9.13019     -61.1873 
-1.93560e-05      10.4683     -143.547 
-1.93562e-05      7.86807      130.978 
-1.93151e-05      9.88367     -147.984 
1.92672e-05      6.60558     -101.175 
1.91132e-05      10.1656     -57.7799 
-1.90957e-05      9.85615     -94.8872 
-1.90769e-05      10.4261     -133.521 
-1.90469e-05      12.1000      48.4845 
0.000194194      9.49776      65.7576 
0.000219103      8.19409     -104.852 
-0.000308503      6.92220      148.471 
0.000150621      10.8184      59.0710 
-0.000173915      4.64302     -76.7992 
-5.79472e-05      1.10943      152.048 
-0.000345216      13.9536     -132.908 
-0.000116913      10.2167      104.744 
0.000105717      10.6209      107.308 
0.000125365      11.3431     -115.480 
-0.000175458      10.9561     -65.6327 
9.47645e-05      9.61816     -43.9885 
8.30606e-05      9.38527     -42.4953 
0.000128193      10.0798      21.7792 
-9.24591e-05      1.09157      151.550 
6.47707e-05      9.19119     -48.0875 
1.75933e-05      11.0422     -118.329 
0.000106123      8.59552      63.0189 
0.000121101      12.7757     -126.726 
0.000202946      10.6016      107.341 
0.000206777      11.0347     -118.470 
0.000107171      6.09092     -158.825 
9.24726e-05      6.48639      163.521 
-5.92004e-05      11.0594     -29.3461 
1.64566e-05      11.3518     -115.572 
-9.00390e-05      10.1578     -66.5635 
-7.20927e-05      9.79597     -115.519 
8.45448e-05      4.27115      49.7459 
-4.36234e-05      3.03087      163.117 
-7.82711e-05      11.0318     -29.3060 
2.98235e-05      7.50178      148.852 
-7.57232e-05      11.5754     -29.0441 
7.94254e-05      8.12488     -79.9365 
-0.000144681      10.9281      56.5707 
0.000213457      9.21981     -48.0780 
8.29733e-05      6.79037      176.795 
0.000154278      11.3004     -49.0900 
2.90493e-05      11.1320      136.092 
2.88832e-05      8.42779      149.478 
4.16253e-05      2.07501      17.3800 
-7.33100e-05      11.6029     -29.0830 
-5.28498e-05      8.55218     -154.514 
6.81514e-05      12.0632      38.2023 
2.84206e-05      10.3611     -139.856 
-2.79252e-05      9.96918      76.6614 
6.38675e-05      8.44156      101.896 
1.43583e-05      6.28791      160.298 
6.50782e-05      9.37034     -42.5789 
4.03298e-05      7.44059      66.0510 
8.51523e-05      13.2158     -41.7478 
3.99126e-05      6.85729     -160.403 
2.74919e-05      6.07458     -106.646 
-4.93451e-05      3.61287     -101.501 
-0.000152079      8.85140      105.731 
-0.000161701      13.5131      40.8591 
-1.39698e-05      2.92664     -158.349 
3.86349e-05      8.63628     -77.1531 
-0.000104890      10.2116      104.634 
-9.65480e-05      8.84708      117.319 
-0.000138772      11.5726      128.474 
7.99416e-05      7.47397      148.905 
2.70591e-05      8.19202      96.4480 
1.37063e-05      6.01770      94.3839 
-2.62962e-05      4.67122     -76.3790 
0.000134357      12.8878     -51.7408 
5.85083e-05      6.25865     -105.194 
-8.38417e-05      9.72985     -134.666 
1.35340e-05      9.50349     -45.5118 
1.35282e-05      6.36106      90.8990 
