! Center RA: 12 21 31.69052,  Dec: +28 13 58.50011 (2000.0)
! Established model.
! Flux (Jy) Radius (mas)  Theta (deg)  Major FWHM (mas)  Axial ratio   Phi (deg) T \
! Freq (Hz)     SpecIndex
  0.121396    0.0202604      180.000 
 0.0899254      0.00000      0.00000 
 0.0159560    0.0286526     -135.000 
 0.0340769     0.240124      90.0000 
 0.0331997     0.101837      78.5245 
 0.0142385     0.121759      80.4216 
 0.0324609    0.0202604     -90.0000 
 0.0122329     0.260423      94.4620 
0.00469846     0.259634      90.0000 
0.00590608     0.120062      90.0000 
0.00504986    0.0397705     -90.0000 
0.00689978     0.280627      94.1402 
0.00113737     0.279894      90.0000 
0.00507415    0.0998015      90.0000 
0.00170369     0.300838      93.8616 
0.00107059     0.388092      101.940 
0.00173474     0.407936      101.351 
0.00568436     0.140322      90.0000 
0.00490155    0.0446338     -63.0042 
0.000905631     0.262662      98.7088 
0.00322680     0.412220      104.011 
0.000636203     0.243395      99.4042 
0.00657429    0.0600310     -90.0000 
0.00179908     0.247514      104.036 
0.00349696     0.431906      103.360 
0.000162643     0.325253      79.3641 
0.000911001     0.253192      108.489 
0.000157571     0.345185      79.9848 
0.000592881     0.349279      76.7101 
0.00243760     0.437032      105.945 
0.000146486    0.0848966      45.0000 
0.00178396     0.260038      112.569 
0.000980203    0.0896014      26.3505 
0.000537833     0.354273      73.6379 
0.000929111     0.360505      70.5467 
0.000725327    0.0828082      14.1622 
0.00298619    0.0828082     -104.162 
0.00287550     0.443026      108.466 
0.000310536     0.286050      114.817 
0.000526245     0.161111      97.2243 
0.000930819     0.295127      118.390 
0.000607712     0.367749      67.5690 
0.000630071     0.747714      105.543 
0.000208043     0.992954      99.2630 
0.00117298     0.386554      68.7149 
0.000490236     0.969949      98.3182 
0.000558951     0.561200      94.0638 
0.000556476     0.817257      111.547 
0.000381099      1.01296      99.0785 
9.31002e-05     0.718124      102.860 
0.000707543     0.304887      121.617 
0.000347405     0.950648      98.4883 
0.000583123      1.03223      98.9077 
0.000697278     0.541740      94.2100 
8.88373e-05     0.742542      104.036 
8.77716e-05      1.03556      100.015 
0.000966192    0.0896014     -116.350 
0.000340951     0.824622      112.808 
8.41941e-05     0.947869      97.2769 
0.000316183     0.304887      58.3833 
0.000156548     0.714035      101.334 
0.000320296     0.832685      114.094 
0.000155274     0.927776      97.4354 
7.87689e-05     0.737890      102.510 
0.000153646     0.101837      11.4755 
0.000151655     0.930615      98.6724 
7.71753e-05      1.04946      97.6840 
0.000375604     0.841160      115.353 
0.000151096      1.04694      96.5851 
0.000294339     0.540658      92.1476 
7.43089e-05     0.141777      98.2159 
7.38334e-05     0.394056      66.0707 
0.000342820     0.849697      116.542 
0.000899844     0.234065      110.062 
0.000113867     0.215843      111.838 
0.000327527     0.209153      106.680 
0.000214453     0.460433      92.5220 
0.00103314     0.761484      103.680 
0.000109037     0.439727      90.0000 
0.000106473     0.440193      92.6380 
0.000308007     0.141777      81.7841 
0.000102152     0.384412      81.0157 
0.000942811      1.05231      104.284 
0.000195767     0.481892      94.7340 
0.000194259     0.373757      74.5128 
0.000377544     0.126477      71.6725 
0.000275339     0.733911      101.023 
0.00135200     0.503350      96.8496 
9.29807e-05     0.791300      106.132 
8.78189e-05     0.116465      58.9729 
8.64159e-05     0.980812      92.3239 
8.57722e-05     0.710331      99.7310 
8.50007e-05      1.00207      93.4345 
0.000324147      1.05749      105.348 
0.000392375     0.357396      63.4349 
0.000164850      1.00106      92.2769 
8.28184e-05     0.891319      99.0579 
0.000450571     0.268467      116.565 
0.000159051     0.100252      53.2159 
0.000156077     0.730308      99.4623 
0.000311692      1.02055      92.2334 
0.000291931      1.06303      106.401 
7.47741e-05     0.874671      100.529 
0.000694133      1.01998      91.1382 
0.000377868     0.100252      36.7841 
7.12360e-05     0.707189      98.1129 
0.000204701     0.350038      59.0362 
0.000328172      1.06870      107.404 
0.000129907     0.727252      97.8876 
0.000132106     0.449587      110.825 
0.000361003     0.216445      123.690 
0.000255462     0.521537      94.3734 
6.48777e-05     0.278118      120.301 
0.000426502      1.04023      91.1160 
0.00226736      2.31808      100.444 
6.32587e-05     0.858942      117.752 
0.000122677     0.360880      56.2769 
0.000180473     0.457182      113.199 
0.000122399      1.01978      90.0000 
0.000298317     0.841065      118.394 
0.000229619      1.07494      108.435 
5.94019e-05     0.520413      92.2312 
0.000116279     0.980215      88.8156 
0.000112218     0.724832      96.3598 
5.83282e-05     0.398226      72.4528 
0.00117833      3.22238      99.2868 
0.000545657      2.87124      100.846 
0.000359708     0.465536      115.491 
0.000108240     0.344213      54.4042 
0.000371122     0.850886      119.594 
0.000359126     0.960569      87.6271 
0.000445371      1.06199      93.2405 
0.000998096      3.74974      101.076 
0.000132834     0.412220      75.9891 
0.00194251      1.97291      100.519 
0.000156166      1.39860      106.617 
0.000278287     0.107434      21.7271 
5.17436e-05     0.228306      127.925 
0.000101825     0.540279      90.0000 
0.000428998      1.40453      107.409 
0.000780651     0.101837     -101.476 
5.03532e-05      1.08441      95.2806 
0.000592995      2.85511      101.307 
0.000615510     0.447333      116.608 
0.000114016     0.417588      73.2909 
0.00122414      1.08279      94.2525 
0.000235499     0.860688      120.724 
0.000190738     0.540658      87.8524 
0.000162439     0.355922      51.8496 
4.75662e-05     0.878166      120.049 
0.000290568     0.961621      86.4209 
4.58062e-05     0.212689      131.281 
8.57944e-05     0.722868      94.7636 
0.000126513     0.423858      70.6669 
0.000256908     0.541740      85.7900 
0.000215307     0.888484      121.180 
0.000376089      1.41049      108.165 
0.000164189     0.226037      135.000 
0.000288113      2.44376      97.9957 
0.000870733     0.568413      50.6787 
0.000530820      2.68824      102.904 
4.13589e-05      3.72986      101.136 
0.000198924     0.899141      122.284 
0.000238076      3.74590      100.772 
0.000223956      2.83598      101.384 
0.000258967      1.41693      108.944 
0.000114784      3.24494      99.5843 
0.000112602     0.543603      83.6598 
0.000703153      3.76581      100.714 
0.000142531     0.126477      18.3275 
0.00102757      2.44102      97.5248 
0.000220172     0.909711      123.323 
0.000197075      3.29531      100.496 
0.000173048     0.721469      93.1600 
0.000185580      1.23978      100.215 
0.000106570     0.240790      138.411 
0.000244146      1.40544      114.376 
3.67650e-05      3.69471      101.552 
6.84715e-05     0.437032      74.0546 
0.000706403      1.25182      77.0800 
0.000991482     0.121759     -99.5784 
0.000544327      4.00220      102.991 
0.000460444      1.62412      99.9236 
0.000218042     0.546212      81.5471 
0.000202352     0.920997      124.376 
0.000535952      2.85135      100.923 
3.45932e-05      3.21917      98.9310 
0.000731169     0.580972      49.1900 
0.000984615      3.31809      100.766 
6.60595e-05      3.19916      98.9873 
6.48083e-05     0.244605      144.994 
0.000277793      1.39561      115.477 
0.000121660     0.456404      118.798 
0.000389870     0.121759      9.57842 
0.000123593      3.32193      101.109 
0.000383681     0.932586      125.404 
0.000244876      1.42904      107.921 
0.000225797      3.19617      98.6418 
0.000392238     0.340220      49.7414 
3.07084e-05     0.260826      147.453 
3.05267e-05      1.08147      93.1820 
3.04390e-05     0.580403      92.0005 
8.59441e-05     0.720656      91.6110 
5.77497e-05     0.268467      153.435 
0.000111854      2.88178      111.588 
0.000533764     0.420705     -177.240 
0.00110288      1.40411      116.195 
0.000768470      3.76210      100.411 
2.80122e-05      3.01149      106.995 
0.000283083      4.02195      102.927 
0.000104313      2.46111      97.4630 
0.000419803     0.474259      117.619 
0.000468941      3.01725      107.349 
7.73766e-05      2.30254      101.010 
0.000749151      1.62076      99.2181 
0.000781421     0.944023      126.369 
9.29224e-05     0.700404      91.6576 
0.000163345      2.84758      100.522 
0.000170815      4.54381      106.364 
2.52607e-05     0.562998      83.8791 
0.000308782      2.87093      112.093 
2.44208e-05     0.580049      90.0000 
9.52499e-05      4.22198      115.836 
0.000212939      2.86750      100.448 
0.000214986     0.565518      81.8376 
0.000160498      3.17388      98.3332 
0.000905143      4.54935      106.600 
0.000680568      4.21319      115.588 
0.000217798      4.02653      103.208 
0.000619671      1.06104      92.1481 
0.000336692     0.141777      8.21587 
0.000163835      1.42315      107.174 
0.00115847     0.440193     -177.362 
0.000540844     0.141777     -98.2159 
0.000502437      4.09646      105.872 
2.10962e-05      2.68378      102.482 
0.000164720      3.44913      99.6816 
1.97275e-05      2.76324      97.4898 
9.92316e-05      3.06093      103.222 
0.000162277      2.74390      97.5429 
0.000194191     0.764056      132.891 
0.000306327      4.91753      106.297 
3.52362e-05     0.600310      90.0000 
5.10125e-05      1.25899      100.057 
6.36258e-05     0.297155      160.375 
4.85071e-05      2.63383      99.1805 
0.000115627      1.17052      109.980 
0.000321467      2.74131      97.1231 
8.12943e-05      2.30650      101.504 
6.26626e-05     0.581411      86.0777 
8.74361e-05      3.15383      98.3865 
0.000117303      4.66864      116.458 
9.99637e-05      4.04625      103.142 
5.31727e-05      3.03087      106.883 
0.000207376      5.05941      104.420 
0.000304363      3.44578      99.3495 
0.000248168      4.42300      114.017 
2.92742e-05      2.63067      98.7449 
6.14386e-05     0.443026      71.5344 
7.10129e-05      3.46121      112.417 
2.90348e-05     0.600651      88.0670 
0.000141266      5.17609      106.612 
0.000104884      1.17760      110.906 
0.000204117     0.310708      165.024 
0.000596688      1.41317      116.932 
0.000171990     0.583147      84.0913 
2.70717e-05      4.75837      117.001 
1.36284e-05      2.59286      95.7469 
1.35086e-05      1.25573      99.1809 
0.000238723      3.47231      111.981 
0.000179035      2.59098      95.3176 
0.000115344      3.04667      103.677 
7.77581e-05      3.31450      100.435 
1.28650e-05      4.67770      116.680 
0.000400282      4.93698      106.231 
8.35706e-05     0.161111     -97.2243 
5.92992e-05      2.86775      112.996 
9.78596e-05      4.76726      117.210 
1.26643e-05      2.62767      98.3083 
0.000667730      5.39903      104.809 
0.000155932      1.25265      98.2660 
0.000229489      4.04170      102.862 
0.000274303      4.65118      116.565 
4.51291e-05      3.71456      101.489 
0.000228477      3.23112      105.063 
1.18816e-05     0.679851      90.0000 
0.000265296     0.120062      0.00000 
0.000264501     0.777987      133.984 
1.17077e-05      5.05440      104.197 
0.000258884      1.61775      98.5360 
0.000109278      3.15094      98.0220 
2.25037e-05      1.41730      106.391 
2.24618e-05      5.07405      104.141 
0.000188584      4.20375      115.957 
0.000151088      5.06931      103.927 
1.07036e-05     0.660341      90.0000 
4.09926e-05     0.181229     -96.4188 
9.10991e-05      1.25651      76.1795 
2.06629e-05      2.86359      114.772 
0.000249346      4.77656      117.427 
3.82194e-05      1.41172      105.602 
0.000173671      3.71072      101.194 
0.000108663     0.959802      125.678 
0.000257309      1.97656      101.075 
0.000171975      2.86221      115.665 
9.87551e-05      3.05134      104.033 
0.000119866     0.601626      86.2097 
2.74459e-05     0.201375     -95.7743 
0.000298238      3.48389      111.558 
9.33392e-06     0.180093     -90.0000 
9.28924e-06     0.620151      88.1278 
7.21519e-05      2.75825      96.6552 
1.61891e-05      2.60762      98.3726 
8.49403e-05      1.18958      109.647 
4.24116e-05      3.02505      106.515 
4.92339e-05     0.200353     -90.0000 
1.70884e-05      1.40660      104.837 
4.36069e-05      4.09096      105.599 
0.000190721     0.460433     -177.478 
0.000108425      4.78558      117.634 
5.74434e-05      1.42619      104.628 
0.000179767      5.06448      103.705 
0.000146685      4.19492      115.708 
3.62099e-05      3.21229      111.933 
1.45332e-05     0.325575      47.5220 
0.000158835      2.58918      94.8712 
7.53960e-06     0.220795     -95.2649 
0.000181915     0.481892     -175.266 
4.66196e-05      1.27546      76.3889 
7.71631e-05     0.699961      143.106 
0.000146306     0.240977     -94.8229 
0.000204108      3.44266      99.0291 
4.97134e-05      1.42121      103.838 
-0.000774180      4.08017      109.768 
0.000110835      2.87104      116.029 
0.000135137      3.46267      98.9765 
1.94398e-05      2.69266      103.308 
0.000123411      4.40450      114.124 
0.000275360      3.47650      111.248 
-0.000796188      4.14640      100.279 
0.000156702      2.86253      116.565 
0.000311268      3.77783      100.067 
5.89633e-05      2.31062      101.996 
-0.000392063      4.20947      119.613 
0.000135405      4.55518      106.844 
0.000156101      4.03740      102.592 
2.03249e-05     0.300155      126.870 
-0.000257930      2.70366      111.252 
2.04214e-05     0.475177      112.272 
5.04638e-05      1.41392      115.123 
-0.000182334      2.71107      111.651 
1.40078e-05     0.603304      84.2894 
4.66632e-05      1.27000      97.2300 
5.86443e-05      4.38670      114.228 
6.94368e-05     0.140322      0.00000 
8.94464e-05      4.10184      106.134 
8.82987e-05      5.05989      103.490 
0.000196080      4.56109      107.087 
2.34047e-05      4.20480      115.349 
-0.000109902      5.48944      108.036 
3.92195e-05      3.22611      104.728 
6.54747e-05      2.58760      94.4408 
4.75014e-06      1.44089      103.645 
-0.000133294      1.70173      109.929 
8.14054e-05      1.43625      102.860 
3.01141e-05      4.63307      116.677 
8.20477e-05      4.36823      114.337 
2.22602e-05      1.42232      115.835 
-4.43943e-05      4.42081      108.189 
-9.31205e-05      1.34537      131.971 
1.28739e-05     0.312731      129.841 
5.02896e-05      1.98055      101.651 
2.08882e-05     0.240124     -90.0000 
-7.43489e-05      4.41453      107.939 
8.25239e-06      4.95571      106.168 
4.20474e-06     0.660651      88.2426 
3.24779e-05     0.553458      49.3987 
-6.06002e-05      1.14557      73.7968 
-3.62028e-05      3.50272      105.227 
-4.11498e-06      3.52227      105.141 
8.01280e-06      3.03669      104.496 
1.19698e-05     0.325575      132.478 
4.03047e-06      1.26769      96.3552 
-7.89229e-06     0.690733      112.079 
3.92874e-06     0.684458      142.125 
-0.000909655      10.2284     -12.6496 
-0.000168924      10.2086     -12.6745 
0.000217397      5.36630     -2.77318 
-0.000595041      6.79386     -49.4166 
0.000384537      5.26116      1.08694 
-0.000256343      8.24197      88.7479 
-0.000512842      6.76340     -111.327 
-0.000547255      10.8671      33.1348 
-0.000246608      12.2690     -132.953 
0.000286995      7.84130     -1.02538 
0.000335032      5.38654     -2.76276 
-0.000282986      8.71542      10.8484 
0.000407016      8.41536     -147.024 
-0.000579981      5.72419     -142.810 
0.000329404      12.5283     -127.346 
-0.000146079      10.3064     -146.559 
-9.83995e-05      13.0631     -131.526 
-0.000528468      9.14258     -55.3343 
0.000327712      3.61543      61.5945 
9.75193e-05      12.6559     -143.547 
-0.000512013      12.6255      39.0853 
0.000621584      12.6722     -143.602 
0.000220204      10.1580      28.5851 
-0.000301363      13.0496     -131.459 
0.000257678      6.78923     -78.7894 
-0.000422625      8.63115     -67.9507 
-0.000174501      4.21971      82.0990 
0.000178491      9.21548     -62.0452 
-0.000256160      8.22129      88.8860 
-0.000296000      10.2957     -146.649 
0.000175392      5.26083     0.874490 
-0.000172118      5.41113     -152.962 
-0.000253141      12.2828     -133.022 
4.57462e-05      12.2729     -126.384 
9.01506e-05      12.6614     -127.686 
0.000207748      9.64250     -30.1287 
0.000127610      5.51733     -6.66204 
-0.000332996      6.10982      111.106 
-0.000171739      12.0554     -133.118 
-0.000165782      6.37711      54.3181 
-0.000287111      9.36374      123.146 
-4.39408e-05      7.83899      172.968 
0.000205698      3.59762      61.4410 
-8.56736e-05      12.3837     -124.870 
-0.000162153      3.87629     -12.8175 
-0.000123419      7.02804      123.512 
0.000162189      12.9802     -132.566 
0.000202488      8.36757      165.463 
8.43114e-05      12.6893     -127.699 
-0.000201972      9.97447     -154.464 
-4.27763e-05      10.7597     -143.236 
8.21620e-05      12.2845     -126.458 
0.000202947      12.5160     -127.272 
-4.25458e-05      10.0420      13.1214 
-0.000242609      9.69687     -124.412 
-0.000122857      7.83662      173.109 
-0.000161933      4.97802     -17.7822 
0.000122228      5.38755     -2.97797 
0.000122006      5.06084      91.1300 
0.000160188      11.1336     -150.394 
0.000200901      8.74849     -152.496 
0.000119674      2.83642      37.8431 
4.16175e-05      5.58344     -9.89780 
-0.000159372      10.0466      13.2339 
0.000120046      9.22499     -61.9341 
-7.97004e-05      10.4917     -141.578 
-8.12874e-05      11.0451     -30.4657 
-0.000119352      12.3953     -124.947 
7.88897e-05      6.93012     -158.318 
0.000156944      12.7017     -127.772 
-0.000218741      6.78119     -49.5417 
4.02362e-05      7.06251     -99.7816 
7.88362e-05      6.20777      57.2282 
4.00236e-05      8.71179     -105.856 
0.000156128      10.5338     -112.672 
-7.90076e-05      3.12343      61.2984 
-3.94763e-05      10.1427      153.534 
-7.78640e-05      3.45522     -137.817 
-7.76463e-05      11.0277     -30.5191 
-7.74539e-05      12.8919     -131.602 
7.70486e-05      7.03999     -99.6521 
-0.000452410      13.2168      129.351 
-3.88480e-05      9.51586      8.94608 
-3.88207e-05      7.81888      172.949 
3.87493e-05      8.43236     -147.099 
3.87103e-05      3.48574     -60.0516 
-3.87228e-05      10.0391      35.4316 
3.86114e-05      8.90238      111.895 
-7.65186e-05      7.69429      57.0972 
-3.84397e-05      10.1514      153.435 
-3.81048e-05      3.13321      60.9734 
3.80128e-05      9.70188     -76.1637 
-0.000626327      10.5235     -141.715 
0.000463492      8.35574     -141.512 
-0.000269515      5.40225     -153.627 
0.000352533      10.9045     -50.8790 
-9.68569e-05      1.48918      22.0802 
-0.000219321      10.9862     -145.007 
9.44194e-05      6.70988      93.0771 
9.40909e-05      9.07344      158.808 
9.23036e-05      2.73222      19.2262 
-0.000132546      9.27766      7.43081 
0.000212556      6.01882     -34.1616 
-0.000390436      10.3420      103.417 
8.99920e-05      9.62386      80.0684 
-0.000240872      9.01389      21.6101 
-0.000244144      7.32821      124.212 
-0.000275333      2.13230     -23.1906 
-0.000126197      1.47826      23.1031 
0.000204158      7.58953     -23.1175 
8.77229e-05      6.68965      93.0864 
-0.000393941      6.58999      176.867 
0.000452187      9.09233      158.855 
-4.35128e-05      1.47043      22.3770 
8.24564e-05      2.73896      19.6264 
-0.000117161      1.45896      33.2487 
0.000120711      6.66942      93.0958 
0.000186864      9.60464      80.0483 
7.91913e-05      9.96035     -29.6030 
0.000148580      11.6597     -130.547 
-0.000116798      10.0804     -153.738 
