! Center RA: 12 21 31.69053,  Dec: +28 13 58.50012 (2000.0)
! Established model.
! Flux (Jy) Radius (mas)  Theta (deg)  Major FWHM (mas)  Axial ratio   Phi (deg) T \
! Freq (Hz)     SpecIndex
  0.110050      0.00000      0.00000 
 0.0209500    0.0286526      135.000 
0.00358832    0.0202604      90.0000 
0.00202246    0.0828082      104.162 
0.00461663     0.101837      101.476 
0.00267840    0.0202604     -90.0000 
0.00142619    0.0562440      135.000 
0.000792244    0.0446338      116.996 
0.000496873    0.0446338      153.004 
0.000719708    0.0202604      180.000 
0.00200460    0.0397705      180.000 
 0.0100730     0.121759      99.5784 
0.00277362    0.0286526     -135.000 
0.00550066    0.0446338     -153.004 
0.00262742     0.141777      98.2159 
0.000331894     0.297155      109.625 
0.00109740     0.323277      111.801 
0.00511868    0.0446338     -116.996 
0.000587690     0.341468      110.586 
0.000966118     0.367749      112.431 
0.00200133     0.394056      113.929 
0.00120993     0.278155      111.026 
0.00108258     0.411965      112.829 
0.00163973     0.120062      90.0000 
0.000394704     0.253192      108.489 
0.000297524     0.417588      106.709 
9.98873e-05     0.420241      115.375 
0.000917378    0.0397705     -90.0000 
0.000529897     0.431906      103.360 
0.000189522     0.429314      117.819 
9.18349e-05     0.438758      120.073 
9.09992e-05     0.427819      100.817 
9.05402e-05    0.0998015      90.0000 
0.000810642     0.159832      90.0000 
0.000213869    0.0286526      45.0000 
0.00183370     0.181229      96.4188 
9.28788e-05     0.392593      104.727 
0.000443706     0.412220      104.011 
0.000495235     0.398226      107.547 
8.66652e-05    0.0202604      0.00000 
0.00138403      2.06629      104.576 
8.09107e-05    0.0446338      26.9958 
0.000230085     0.450910      102.787 
0.000225837    0.0720098      33.5245 
0.000148567     0.404795      110.283 
0.000216294     0.386554      111.285 
0.000805209     0.466942      99.9013 
0.000524041    0.0896014      26.3505 
0.00147932     0.180093      90.0000 
0.000649324    0.0600310     -90.0000 
0.000692388      2.08094      103.896 
0.000720365     0.486913      99.4914 
0.000118591    0.0633577     -108.650 
0.000338671     0.107434      21.7271 
0.000487491     0.483985      97.1250 
0.000115773      2.07148      105.119 
0.000539333     0.402700      116.565 
0.00150377    0.0828082     -104.162 
0.000111199      2.05787      105.785 
0.000107702      2.09606      103.245 
0.000106669      2.06348      106.326 
5.29176e-05     0.101837      11.4755 
0.000203673      2.09151      102.705 
0.000606741     0.121759      9.57842 
0.000152813      2.04404      106.486 
0.000655581      2.04988      107.029 
0.000414839     0.412159      119.085 
0.000233721     0.513977      76.4913 
0.000324667      2.11055      102.588 
0.000325282     0.519084      74.3163 
0.000128055      2.10623      102.051 
0.000321325     0.421988      121.401 
0.000433850      1.73671      104.667 
0.000601150    0.0802914     -90.0000 
0.000160050      2.13033      102.470 
0.000640941     0.141777      8.21587 
0.000815400     0.490508      101.740 
0.000370752      1.92617      105.038 
0.000945588     0.101837     -101.476 
7.57344e-05      2.15454      102.879 
0.000423425      2.05568      107.549 
0.000315416     0.432889      123.690 
0.000451284     0.524694      72.2647 
0.000305242      2.17356      102.765 
0.00108120      1.73187      104.042 
0.000907319      2.49505      102.030 
3.51320e-05      2.17796      103.265 
9.75658e-05      2.51414      101.937 
0.000213405     0.444008      125.785 
0.000388324    0.0998015     -90.0000 
0.000474297     0.201375      95.7743 
0.000301947     0.721469      93.1600 
0.000279281      2.19333      102.648 
5.94350e-05     0.140322      0.00000 
0.000563263     0.159832      0.00000 
0.000334260     0.742313      94.6386 
0.000160596     0.456152      127.850 
0.000376114     0.504899      56.3335 
5.50823e-05      2.08115      107.912 
0.000339710      1.92120      104.476 
0.000358234      2.08747      108.441 
0.000379321     0.720656      91.6110 
0.000117916      2.23377      106.651 
2.51133e-05      1.80726      95.0738 
0.000231042     0.484006      128.327 
0.000115667      2.20466      101.505 
0.000989185      4.36248      102.446 
0.000250762     0.531217      70.1828 
0.000233817      1.80564      94.4571 
0.000511578     0.513977      103.509 
0.000200214      3.55807      102.002 
0.000469297      6.19014      104.978 
0.000166222      2.22001      100.911 
0.000174530     0.905879      112.039 
0.000104171      2.10224      101.531 
0.000288367      3.91467      108.161 
0.000966710      2.16046      90.5373 
0.000147868      7.74115      108.059 
0.000104363     0.495028      104.036 
0.000239332      1.78396      93.8590 
0.000335075     0.496341      130.094 
9.08834e-05      2.23966      107.148 
0.000268958      2.27521      167.311 
0.000793816      3.12420      87.0675 
0.000282993     0.948403      114.943 
0.000601127      2.23215      167.576 
0.000127272      3.55407      101.694 
0.000546434      2.09372      108.948 
0.000115914      9.28736      107.031 
0.000431494      1.19830      104.506 
0.00112670      5.64646      112.933 
0.000352551      7.73512      107.922 
1.96673e-05      3.72110      104.636 
0.000800539      9.29309      107.146 
0.000196978      2.51840      102.388 
0.000136438      3.71604      104.334 
0.000175981      1.83546      119.353 
0.000120837      2.20085      101.007 
0.000572961      7.94259      116.628 
0.000102800      1.70736      103.548 
0.000276912      7.58694      113.459 
0.000350803      1.78271      93.2093 
0.000330658      3.93393      108.069 
0.000179621      1.85315      119.046 
0.000161511      9.12651      106.292 
1.70909e-05     0.500058      53.1129 
0.000143295      6.21497      105.110 
4.93189e-05     0.957123      116.043 
0.000608485     0.509625      131.837 
6.10687e-05      2.11818      100.884 
3.19499e-05      5.19923      108.853 
5.37307e-05     0.544027      72.9147 
0.000488383      7.95169      116.758 
0.000141218      3.68646      86.5808 
0.000245119     0.993150      117.591 
0.000586664      3.68535      86.8836 
0.000397508      1.70273      102.885 
4.56186e-05      3.42579      99.4046 
0.000107693      2.27098      107.956 
0.000305191      9.10706      106.328 
7.32191e-05      5.19272      108.642 
0.000500325      8.30045      106.951 
0.000277544      8.13918      113.921 
0.000284387      6.74105      91.0205 
7.24294e-05     0.832090      80.2913 
0.000466513      4.93048      100.994 
0.000216260      7.56904      113.518 
0.000191630      6.19541      105.159 
0.000145580      3.42265      99.0823 
1.44193e-05      3.73998      104.560 
8.34844e-05      3.80080      96.0404 
9.58001e-05      1.20333      105.406 
0.000211761      7.17905      85.8461 
0.000377259      3.12530      86.6965 
0.000199609      2.16073      91.0546 
0.000426524      2.21310      167.467 
2.66889e-05      3.86102      98.3364 
0.000109242      2.11444      100.345 
6.54901e-05      1.91624      103.889 
0.000126301      3.73494      104.260 
0.000270896      1.82598      118.819 
0.000251424     0.848223      81.8627 
0.000179179      4.92493      112.192 
7.54602e-05      5.21121      108.573 
0.000116538     0.909182      140.358 
0.000114127      3.25968      90.0000 
0.000323641      3.79872      95.7365 
0.000269499      6.90889      83.1822 
2.62316e-05      5.74341      109.318 
6.46680e-05      7.57889      113.319 
0.000217014      1.85603      127.129 
3.79363e-05      2.49935      102.484 
2.58570e-05      1.19402      98.6750 
1.27439e-05      1.20887      106.331 
0.000164827      5.73674      109.127 
0.000118197      1.00269      118.617 
6.16001e-05      1.19113      97.7115 
1.25389e-05      4.06153      107.183 
7.84836e-05     0.180093      0.00000 
0.000253650     0.937714      140.194 
0.000277855      3.92769      107.788 
9.28251e-05      1.19539      107.536 
4.80680e-05      7.57090      113.178 
0.000385652      7.15884      85.8344 
2.38227e-05      1.82825      126.992 
0.000169364      4.06756      107.456 
0.000199213      1.81613      126.482 
9.90990e-05      1.94010      104.332 
6.46297e-05      6.22028      105.290 
0.000343372      6.74144      91.1927 
3.44627e-05      2.50364      102.920 
0.000133043      3.25974      90.3561 
2.34301e-05      1.18867      96.7796 
0.000218570      6.88878      83.1622 
0.000247192      8.00700      117.845 
6.63079e-05      7.56324      113.042 
0.000147305      1.20586      95.7141 
0.000163128      8.33149      107.172 
5.44154e-05      7.57685      113.653 
3.25653e-05      5.20503      108.370 
0.000107315      3.70558      86.9006 
4.32084e-05      1.78173      92.5828 
2.20320e-05      2.49737      114.101 
5.79928e-05     0.204262      168.773 
0.000117995      2.19333      167.352 
6.15986e-05     0.722868      94.7636 
4.26741e-05      9.31844      107.228 
2.14093e-05      2.48390      103.024 
0.000105908      9.29909      107.265 
0.000161760      3.12654      86.3259 
4.23093e-05      1.03918      120.027 
6.89684e-05      2.50571      114.523 
9.93857e-05      1.20142      108.424 
3.15625e-05      3.82095      96.0084 
1.05031e-05      5.07514      114.447 
0.000187995      6.75022      83.0211 
8.85083e-05      7.55533      112.900 
0.000187910      5.08324      114.647 
1.03334e-05      3.81888      95.7061 
7.33464e-05      6.88746      98.0100 
0.000438403      6.88477      97.8493 
0.000271027      8.68129      105.635 
0.000309974      8.48175      102.529 
0.000418928      7.14907      106.915 
0.000203202      8.65113      105.418 
2.15244e-05      7.99756      117.717 
0.000217219      9.32446      107.347 
5.95832e-05      2.09452      100.444 
0.000186761      7.58500      113.793 
0.000189998      6.58268      103.528 
0.000135957      8.47737      102.395 
5.96187e-05      7.71033      107.823 
4.04086e-05      3.79682      95.4436 
7.72863e-05      6.72335      107.840 
3.93348e-05      2.24549      107.624 
1.97446e-05      8.13098      113.790 
5.76726e-05      3.79495      95.1390 
1.93638e-05      1.69849      102.243 
0.000110259      4.95037      100.949 
5.63150e-05      3.75535      84.8066 
3.76355e-05      2.07151      83.9073 
1.89313e-05      6.20074      105.340 
1.88180e-05     0.819935      102.688 
0.000164781      2.33823      167.150 
5.53962e-05      3.10764      85.9430 
1.86551e-05      4.07346      107.717 
1.85990e-05      1.76011      91.2947 
1.85760e-05      3.41951      98.7471 
1.85690e-05      3.25992      90.6990 
3.68771e-05      2.11055      167.412 
1.84925e-05      6.60257      100.120 
1.83998e-05      1.20797      109.335 
5.33876e-05      3.81699      95.4147 
1.81892e-05      2.46416      103.131 
1.81599e-05      4.90257      111.542 
0.000655813      10.2400      109.036 
0.000586263      10.3842      105.641 
0.000379641      9.81632      102.592 
0.000174922      10.0079      103.286 
0.000128950      5.09173      114.854 
3.78464e-05      3.26023      91.0551 
1.89348e-05      3.28049      91.0485 
9.07491e-05      7.15740      85.9961 
1.87313e-05      7.59320      113.933 
8.99997e-05      3.61833      84.2870 
5.39986e-05      2.44517      103.234 
7.18079e-05      8.03390      100.472 
3.62715e-05      1.20401      94.7547 
3.56891e-05      6.60616      100.293 
3.58064e-05      3.77552      84.8344 
3.55882e-05      3.28092      91.4023 
5.30762e-05      2.16120      91.5917 
3.53393e-05      9.11257      106.446 
3.50639e-05      6.61086      111.285 
1.77318e-05     0.509625      101.293 
3.50474e-05      8.27590      106.856 
3.50064e-05      1.20255      93.8283 
1.75764e-05      4.87366      110.664 
-0.00126188      7.03971      139.843 
0.000301983      4.59426     -104.887 
-0.00143987      7.50485      137.808 
-0.00104542      11.7948      44.8634 
0.000392934      4.11369     -99.2372 
-0.000561886      7.36512     -177.822 
-0.00113879      8.93774      25.3043 
0.000879424      4.60870     -104.579 
0.000743651      3.73719     -47.6040 
0.000665176      4.11687     -99.5052 
0.00101228      8.90756      120.945 
-0.000556833      11.0665     -60.7948 
0.000773241      7.55984     -58.4130 
-0.00115177      10.8806      133.287 
-0.000326600      8.38237     -119.443 
-0.000331973      10.8358      43.6532 
0.000985560      13.0285     -38.3300 
0.000618766      3.08281      45.0000 
-0.000750571      7.34562     -177.816 
0.000830251      11.8154     -54.5072 
0.000614606      9.52062      57.6126 
0.000168085      6.70864     -5.30119 
-0.000451175      3.16104     -131.150 
0.000163375      5.34930     -80.7491 
0.000748152      7.83697      79.2614 
-0.000461116      4.71701      65.7182 
0.000303135      9.96423     -105.959 
-0.000504880      10.8301      157.981 
7.98155e-05      6.71054     -5.47344 
-0.000154182      7.69645     -176.277 
0.000513608      9.29997     -101.284 
0.000297021      6.15020      121.570 
-0.000568711      7.05279      139.717 
-0.000433230      9.60247      10.5591 
0.000569514      5.12425      19.8519 
-0.000227412      7.65091      157.724 
-0.000216321      9.39727     -80.9401 
0.000221127      7.11662     -52.4196 
0.000287863      6.68847     -5.31722 
-0.000220446      5.11011      144.877 
0.000283609      3.49437     -136.627 
-0.000624374      6.06783     -52.9062 
0.000211629      5.35259     -80.5350 
-0.000348696      10.8223      43.5784 
-0.000441557      11.1381     -48.6409 
-0.000350875      7.71870     -165.134 
-0.000215228      7.37065     -97.9527 
-0.000483242      1.07484      46.4993 
-0.000277979      11.4686      132.173 
-0.000140032      6.16772      167.450 
-0.000207387      7.69780     -176.126 
0.000273704      9.65540     -42.3132 
-0.000275022      7.66966      157.781 
-0.000272834      10.4753     -57.5565 
-0.000205031      3.39576     -156.755 
-0.000268160      7.54373     -103.337 
-7.03596e-05      6.18677      167.489 
-6.96997e-05      11.3684     -63.7952 
-0.000134182      7.56779      2.57444 
0.000135378      7.71917     -116.301 
0.000201740      6.73409      176.256 
0.000200120      12.0346     -135.068 
-0.000198642      2.16105     -7.98380 
6.81713e-05      4.13295     -99.1938 
0.000199349      7.45287     -134.894 
0.000132681      3.99523     -80.4864 
6.75739e-05      5.15778      78.8176 
0.000131680      6.16083      121.731 
-0.000131228      1.74916     -120.955 
0.000131901      9.29617     -101.166 
-6.61416e-05      8.21912     -111.256 
6.60802e-05      7.12853     -52.2953 
-6.57495e-05      7.37348     -98.1087 
6.53880e-05      7.10151      136.370 
6.53183e-05      6.46078      80.9184 
-6.51583e-05      9.28606     -141.822 
6.49703e-05      9.53148      57.5098 
-6.48477e-05      9.14810     -74.1385 
-6.46024e-05      3.83046     -175.810 
6.41173e-05      13.0407     -38.3972 
-6.40272e-05      4.69122      65.8374 
-6.39155e-05      13.1537      132.228 
6.39613e-05      3.75088     -47.3755 
-0.000299893      9.13633     -45.5324 
0.000188564      9.97908     -76.9095 
-0.000715114      9.07582     -149.256 
0.000710488      6.88943     -123.872 
-0.000177690      9.83282     -122.202 
-0.000541399      9.71359      34.3444 
-0.000368441      1.92478      47.5280 
0.000113416      9.95550     -76.9976 
-0.000307466      9.83857     -122.042 
0.000212824      10.1763      60.3101 
-0.000162138      9.15053     -45.4419 
-0.000636081      10.5378     -160.603 
0.000155502      10.1196     -79.1783 
-0.000154227      5.49124     -148.854 
-0.000371917      8.68495     -37.6075 
0.000195603      3.05401     -23.5480 
0.000248347      6.52899     -107.104 
0.000147944      4.09088     -85.7923 
0.000150253      5.72362     -138.401 
0.000580907      10.6025     -121.502 
-0.000149003      9.52979     -110.261 
0.000643424      12.6038     -47.9585 
-0.000225299      8.33058      141.730 
0.000130853      9.96008     -76.8841 
0.000187367      12.1696      138.397 
0.000301543      6.10164     -31.1897 
-0.000259985      10.9090      22.7587 
0.000251198      10.5892     -112.547 
-0.000253677      6.60825     -110.736 
-0.000134086      4.98497     -61.4790 
0.000480398      10.9483     -127.204 
-9.26856e-05      12.2151     -35.5393 
-0.000361801      13.4751     -138.551 
0.000437959      12.4606     -145.263 
0.000381918      10.1859      60.2148 
-0.000166815      9.12188     -45.4433 
9.13419e-05      10.9906     -58.3935 
8.79195e-05      10.1433     -79.0874 
-0.00263454      14.1321      43.6812 
0.000384027      6.54763     -107.054 
-0.000293081      5.80827      53.6853 
-4.65070e-05      4.38338     -55.2217 
-4.64594e-05      5.50525     -149.433 
0.000288953      10.5813     -32.3387 
-0.000134467      10.8653      126.089 
-8.93612e-05      4.59296      85.7557 
0.000164890      4.92440     -156.040 
0.000161636      12.2257      33.4560 
-0.000320557      9.04127      10.8352 
8.86250e-05      11.0507      55.6193 
-4.51755e-05      4.30451     -55.7919 
0.000417171      8.91255      4.89264 
-7.87873e-05      13.8091      133.241 
-0.000314807      9.82204     -122.102 
-8.19137e-05      5.62628      147.777 
8.64088e-05      9.07664     -52.7000 
8.60065e-05      10.6296      29.4098 
-0.000257507      9.08504     -68.9737 
-0.000123970      6.03741      10.3029 
-4.39125e-05      5.77334     -148.456 
-8.44727e-05      4.35518     -55.2886 
8.49792e-05      9.95230      122.859 
-4.35824e-05      9.52466     -110.528 
4.35121e-05      12.2426      33.4037 
0.000476972      9.29227     -101.043 
-0.000270119      12.1992     -35.5926 
0.000527936      10.1151      140.457 
-0.000122608      11.6629      131.314 
-4.28298e-05      5.48470     -148.574 
-0.000123814      7.35464     -131.364 
4.25146e-05      6.75430      176.267 
-0.000150722      6.01748      10.3374 
4.24387e-05      10.9361     -127.119 
-0.000312757      10.8772      126.175 
-0.000148886      4.26607     -56.0863 
-0.000182123      9.23034     -125.654 
8.03757e-05      11.0617      55.5359 
4.19082e-05      5.91994     -126.485 
-0.000187150      1.92676      48.3628 
-8.08293e-05      13.2789     -132.437 
-4.16428e-05      7.33994     -32.6486 
-4.15087e-05      9.06778      113.115 
4.14681e-05      11.1008     -27.3480 
-0.000494873      11.7568     -46.5853 
0.000377848      10.5608     -14.5892 
-0.000155030      11.1080      24.3523 
0.000156925      8.63536     -105.034 
-0.000311186      9.52044     -110.793 
-0.00154831      13.1327     -139.324 
0.000114669      5.00443      34.5789 
-0.000209814      13.3032      39.9384 
-0.000144881      6.38348     -171.898 
0.000808851      5.92425     -126.211 
0.000147232      12.1410      138.405 
7.58674e-05      10.9525     -58.5152 
4.01321e-05      9.77668     -154.169 
-0.000426053      10.2742     -175.312 
0.000186222      10.6473      29.3562 
-0.000373529      13.9734     -135.694 
-7.57846e-05      10.8900     -110.199 
0.000416442      10.5814     -112.446 
0.000223249      9.89222     -128.514 
0.000174376      9.08847     -52.6022 
-0.000149561      8.81640      18.5151 
0.000111795      7.48136      151.587 
0.000404188      10.3455     -140.648 
-3.92126e-05      5.47722     -108.301 
-0.000517084      12.4623     -54.9320 
7.59053e-05      6.77452      176.278 
-7.49959e-05      9.26799     -41.3269 
-3.87826e-05      4.68403     -77.9232 
-0.000598823      7.18941      42.7456 
-3.86818e-05      10.7933     -60.3480 
-7.35556e-05      2.80941     -151.977 
3.86795e-05      11.1188     -27.3000 
3.85853e-05      9.96331      122.956 
-3.82955e-05      13.8225      133.300 
-0.000233234      7.34127     -131.245 
-3.81239e-05      5.80628      166.251 
-3.80060e-05      10.4738     -18.7127 
9.11800e-05      10.1431      140.439 
-0.000267355      5.25721     -48.5471 
3.74284e-05      8.52810     -24.8220 
-3.73795e-05      4.39454     -55.0128 
