! Center RA: 12 21 31.69052,  Dec: +28 13 58.50019 (2000.0)
! Established model.
! Flux (Jy) Radius (mas)  Theta (deg)  Major FWHM (mas)  Axial ratio   Phi (deg) T \
! Freq (Hz)     SpecIndex
  0.124342      0.00000      0.00000 
0.00368465    0.0202604      90.0000 
0.000877067    0.0446338      116.996 
0.00290890    0.0720098      123.524 
0.00827591    0.0286526     -45.0000 
0.00816107     0.100252      126.784 
 0.0115180    0.0562440     -45.0000 
0.00238556     0.116465      121.027 
0.00421782    0.0896014      116.350 
0.00716078     0.107434      111.727 
0.00415192    0.0446338     -63.0042 
0.00283701     0.227911      105.272 
0.00348625     0.247514      104.036 
0.00253462     0.134233      116.565 
0.00137412     0.262662      98.7088 
0.000550565     0.280627      94.1402 
0.00284775     0.215843      111.838 
0.00115583     0.300838      93.8616 
0.000257013     0.322129      97.0919 
0.000246601     0.342244      96.6731 
0.000896171     0.365154      99.4623 
0.00149110    0.0720098     -56.4755 
0.000297342     0.234065      110.062 
0.000382227     0.369026      102.567 
6.89065e-05     0.107434      158.273 
0.000561071     0.388092      101.940 
0.00104166     0.791053      110.721 
0.000183232     0.126477      161.673 
0.00189834     0.798447      112.081 
0.000176431     0.126477      108.327 
0.000611200     0.286260      102.105 
0.000589565     0.121759      170.422 
0.000284022    0.0562440     -135.000 
0.000483163     0.411965      112.829 
0.000528682     0.266484      103.019 
0.000263922    0.0446338     -116.996 
0.00156307     0.430710      111.783 
0.00142568    0.0600310     -90.0000 
0.000413445    0.0802914      90.0000 
0.00129107     0.945882      103.441 
0.000158403     0.141777      171.784 
0.000595665     0.253192      108.489 
0.000409770    0.0998015      90.0000 
0.000143085    0.0828082      75.8378 
0.000285285     0.161111      172.776 
0.000553358     0.101837      78.5245 
0.00172135     0.950796      104.628 
0.000337821     0.592344      101.694 
0.000365992    0.0633577     -71.3505 
0.000977102    0.0896014      63.6495 
0.000198320     0.325253      79.3641 
0.000570948     0.181229      173.581 
0.000422979      3.31450      100.435 
9.79657e-05    0.0828082     -75.8378 
9.11599e-05     0.572519      102.105 
0.000443336    0.0896014     -63.6495 
0.00156078      3.59762      98.3109 
0.000113932     0.429314      117.819 
0.000150168      3.26979      119.701 
0.000555448     0.329594      75.9005 
0.000952283      3.31809      100.766 
0.000298595     0.189835      108.435 
0.000528836      3.29678      119.839 
0.000237661     0.100252      53.2159 
5.53571e-05     0.443026      108.466 
8.21981e-05     0.553458      102.529 
0.000361204      2.56516      100.791 
0.000594999      7.76476      110.347 
0.000559631      3.14110      125.402 
0.000383607      3.23348      106.530 
7.58953e-05     0.538618      105.101 
7.35607e-05      3.60718      106.422 
2.48935e-05      2.56888      101.218 
2.47312e-05     0.455823      105.272 
0.000460758      2.96057      116.916 
0.000840789      7.64737      112.609 
0.000259367      3.71385      112.150 
0.000892277      9.58798      110.516 
0.000273255     0.438758      120.073 
0.00119282      3.25979      119.392 
6.99598e-05      3.97779      108.158 
0.000697077     0.519084      105.684 
2.35229e-05      3.90877      108.804 
0.000872904      2.54599      100.873 
0.000210797     0.100252     -53.2159 
0.000110832     0.981011      106.578 
0.000192513      3.61296      106.730 
0.000472732      2.71635      103.629 
0.000123391      3.88960      108.900 
0.000188494      7.73200      110.123 
0.000149579      3.99104      107.801 
0.000106951     0.817257      111.547 
0.000201613      3.29892      100.829 
0.000163482      9.75704      111.148 
6.19887e-05     0.955909      105.760 
0.000504569      1.07726      111.794 
0.000405072     0.170734      110.586 
0.000420724     0.810035      110.214 
0.000273450      7.22351      107.733 
0.000234379      3.98489      107.524 
0.000129147     0.100252     -36.7841 
0.000704770      3.15288      125.703 
0.000106243      3.11014      105.290 
0.000187727      9.77594      111.105 
0.000425038      9.78325      111.215 
0.000188525      3.73262      112.032 
0.000718088      7.75774      110.207 
0.000122424      2.88606      110.692 
0.000102577      9.68285      108.175 
9.63027e-05     0.113549     -45.0000 
6.49251e-05      3.89621      109.182 
0.000373744     0.926189      103.732 
0.000120558     0.880204      90.0000 
0.000170609      7.22948      107.880 
0.000460272      2.87439      111.213 
0.000276902      9.67655      108.061 
0.000442005      3.99842      107.170 
3.14526e-05      9.53398      112.314 
9.06701e-05      3.61885      107.037 
0.000192426     0.449253      122.310 
9.71391e-05      3.70593      114.219 
8.54219e-05     0.116465     -31.0271 
9.82590e-05      3.75141      111.916 
0.000231358      2.50453      117.594 
0.000242981      9.54169      112.426 
0.000531915      7.20421      107.782 
6.63573e-05      2.73605      103.529 
2.81039e-05      3.97906      107.256 
2.74700e-05      3.90266      109.452 
0.000145409      7.90567      107.979 
6.49768e-05      7.90322      111.371 
0.000474315      9.70210      108.138 
0.000143275      3.59324      109.850 
6.38245e-05      3.30279      101.175 
3.90951e-05      9.36160      109.211 
0.000139067     0.880437      88.6814 
6.14939e-05      7.72505      109.982 
0.000165581      8.01581      112.599 
9.60423e-05     0.128090     -38.8171 
2.55317e-05      3.76952      111.806 
0.000417972      8.35127      113.126 
3.57728e-05      3.96039      110.080 
0.000612993      9.33581      109.134 
5.92415e-05      3.77681      112.080 
0.000495309      2.74127      125.204 
0.000125403      2.54225      100.424 
0.000241113      7.89944      107.839 
5.45258e-05      2.71165      103.213 
0.000140961      3.71398      114.494 
1.18630e-05      8.32407      109.216 
0.000228853      8.33076      109.347 
0.000325677      3.36506      93.0679 
0.000114772      3.22778      106.185 
0.000120657      3.79559      111.965 
5.34294e-05      8.31165      109.394 
0.000218411     0.145849      105.824 
2.83795e-05     0.334882      72.6613 
0.000102030     0.144435     -33.7726 
0.000288997      7.63960      112.469 
2.11172e-05      7.87062      111.153 
0.000341277      7.93140      104.458 
-0.000649920      3.56260      92.2573 
0.000303162      2.51871      100.054 
0.000181695      2.52250      117.381 
5.98955e-05      3.30677      101.519 
2.99928e-05      3.39898      120.795 
1.99807e-05      3.94208      110.177 
5.61471e-05     0.461573      107.699 
0.000122669      9.91167      109.200 
0.000191865      3.16475      126.000 
-0.000343203      9.41805      107.935 
1.93467e-05      7.86333      111.016 
0.000142852     0.881102      87.4129 
5.17824e-05      3.59948      107.132 
0.000120169     0.161670     -29.7779 
3.61139e-05      3.29090      101.922 
9.25041e-06      3.42638      120.901 
9.16642e-06      3.91635      110.011 
4.29772e-05     0.223431      169.747 
0.000134720      3.99248      106.892 
5.55298e-05      2.97865      116.739 
-0.000188207      7.45874      112.713 
0.000504097      3.36620      93.4122 
0.000123850      3.43683      121.191 
2.55445e-05      7.83021      110.797 
3.39251e-05      3.78834      111.692 
0.000190316      9.93010      109.163 
5.05941e-05     0.803259      108.858 
8.11540e-05      8.02333      112.728 
1.72472e-05      3.94911      110.453 
6.46084e-05      3.29514      102.267 
-0.000372230      3.36739      124.349 
0.000360658      7.21020      107.930 
0.000170210      3.52440      116.996 
3.72848e-05      3.11534      105.636 
2.39253e-05      9.76437      111.258 
-0.000107871      3.64997      120.641 
0.000174798      3.72242      114.778 
0.000187350     0.931206      104.943 
8.08840e-06      3.92306      110.279 
0.000130327      3.57716      101.937 
0.000127721      3.80717      111.579 
0.000125328      8.24099      113.453 
0.000125565      7.79694      110.572 
8.65174e-05      1.08495      112.788 
2.95982e-05      3.89731      110.113 
-0.000187799      7.69105      107.869 
0.000219021      3.61767      98.2646 
-0.000277434      3.42439      110.873 
0.000156407      3.60528      107.428 
-0.000368866      9.41183      107.818 
0.000106215      2.88178      111.588 
9.75546e-05      8.31840      109.525 
7.49591e-05     0.178866     -26.6725 
8.90290e-05      3.20905      106.282 
9.93373e-05      3.29951      102.611 
0.000189788      3.20397      126.371 
7.46482e-05      9.77146      111.365 
3.23633e-05     0.204262      168.773 
0.000240252      7.92637      104.316 
-0.000201963      7.45094      112.570 
-0.000197546      3.63969      120.366 
1.32766e-05      3.90407      110.382 
2.57959e-05      9.60696      110.473 
-0.000219576     0.278118     -149.699 
5.59210e-05      2.41374      96.1750 
-0.000145244      7.68485      107.725 
0.000117768      2.52233      100.508 
-0.000308883      3.41723      110.556 
-0.000179976      2.88756      97.9616 
-1.88980e-05      7.27768      106.441 
8.11632e-05      3.46466      121.304 
4.58385e-05      4.01115      106.811 
6.92220e-05      3.70472      114.904 
2.85825e-05      2.74086      103.941 
0.000131469      8.28749      109.744 
-0.000131217      7.28344      106.594 
7.36414e-05      3.14034      105.893 
7.40140e-05      3.79976      111.295 
7.95271e-05      9.66085      109.975 
6.10794e-06      3.87900      110.212 
6.81311e-05     0.197181     -24.0289 
6.87520e-05      3.30382      102.941 
-3.60540e-05      7.90793      109.807 
4.47996e-05      2.39231      95.7607 
6.25699e-05      3.29057      112.512 
7.29985e-05      3.61140      107.735 
-0.000156027      7.93386      109.895 
4.97561e-05      8.22240      113.510 
2.78547e-05      3.50635      117.146 
2.21389e-05      8.16475      106.213 
-4.96549e-05      7.63589      104.873 
-8.21373e-05      3.87013      94.1474 
-5.43032e-05      3.54311      92.2698 
-5.41872e-05      3.37218      123.877 
1.62115e-05      3.58641      109.546 
5.56993e-06      8.04916      112.807 
2.17602e-05      7.63217      112.334 
2.15270e-05      9.69581      108.024 
-4.30130e-05     0.816509      126.027 
-3.76150e-05      2.58364      93.1134 
5.47188e-06      7.91186      114.492 
3.20019e-05      7.63972      115.425 
3.74309e-05      3.73900      95.8284 
-2.66264e-05      4.30226      116.208 
1.58912e-05     0.907248      104.025 
1.59437e-05      2.85292      102.965 
5.31719e-06     0.323277      68.1986 
5.26528e-06      8.15936      109.323 
5.26618e-06      3.95623      110.728 
5.23973e-06      2.39435      96.2252 
5.22965e-06      9.77886      111.476 
0.000980954      7.81161      150.216 
-0.000863610      9.37252     -52.5438 
0.000350944      5.22690     -54.9729 
0.000591999      5.25451     -54.9141 
0.000705593      10.9600      129.967 
0.000527786      13.0931     -132.584 
-0.000732726      5.20002     -148.207 
6.45840e-05      4.11833      19.5773 
-0.000188304      9.47331     -103.803 
0.000560754      11.5213     -123.745 
0.000512376      10.1423     -28.8899 
0.000823794      4.09925      19.6722 
-0.000408525      10.3004      58.9017 
0.000814483      13.0479      132.889 
0.000268540      1.30215     -3.53514 
0.000499508      9.46454      150.781 
-0.000695560      13.3278     -136.704 
0.000445714      5.85259     -93.7198 
-0.000537021      8.79681      83.4709 
-0.000377040      11.2697     -32.1684 
0.000383611      9.48059      18.3188 
-0.000430796      9.46850     -103.684 
0.000424309      10.7811     -127.614 
-0.000381496      8.02184     -74.2320 
0.000475326      12.2513     -43.5457 
0.000376516      10.9031     -116.706 
0.000278101      1.32237     -3.48101 
-0.000113763      7.19575     -176.173 
-0.000263408      7.38504      99.6633 
-0.000214413      11.0833      48.8046 
0.000219139      11.6718     -29.6850 
0.000165284      7.51992      164.892 
0.000261984      10.3545      29.6342 
-0.000408395      6.46424     -72.3496 
0.000256324      6.91216      157.366 
-0.000307935      9.36022     -52.6423 
0.000203982      1.92118     -1.79061 
-0.000303820      3.91727      26.6927 
0.000252203      4.95013     -93.7026 
-0.000353325      6.44805      9.46451 
-0.000204233      7.17465      125.241 
0.000201529      9.35495      101.718 
-0.000102703      7.19442     -176.334 
-0.000250339      10.4127      23.0674 
-0.000248465      6.92759     -174.867 
0.000198411      7.82132      150.092 
0.000199202      7.52522      164.743 
0.000100347      8.06265      118.282 
5.14245e-05      11.6441     -29.6478 
-5.11774e-05      5.33526     -85.7008 
0.000146721      13.5087     -133.861 
0.000195700      11.2293      24.9690 
9.80350e-05      11.0663     -25.3626 
0.000196047      8.67506      167.212 
-9.89563e-05      10.2932      58.7504 
9.88498e-05      10.1478      19.9357 
0.000193894      11.6542     -29.7344 
9.79796e-05      9.65178     -30.9240 
-0.000144987      3.17011      50.8890 
-9.76398e-05      10.3756     -120.718 
-9.78967e-05      7.56929      8.81612 
-9.67658e-05      8.96381     -56.5587 
-9.64933e-05      6.23088      15.6430 
-4.91441e-05      13.0154     -38.8239 
0.000143549      5.83373     -93.9312 
-9.64088e-05      8.04134     -74.2713 
0.000142590      6.46120     -91.0647 
4.88184e-05      10.4770      111.619 
-9.62407e-05      7.40569     -68.2881 
0.000142768      9.44686      150.721 
-4.85032e-05      9.01349     -136.889 
4.85363e-05      6.02042      29.8884 
9.46282e-05      9.52217     -48.5749 
4.79005e-05      13.0799     -132.522 
4.75969e-05      2.98083     -11.6183 
4.75443e-05      7.55110     -60.3116 
4.73129e-05      10.4653      135.311 
-4.73204e-05      11.6199     -142.834 
4.72316e-05      10.4845      111.721 
4.72161e-05      10.9212     -116.658 
-4.68985e-05      12.0749      41.2409 
-4.67783e-05      12.5565      41.2542 
4.66111e-05      9.46136      18.3574 
4.63863e-05      10.1246     -28.9453 
0.000789138      7.53148     -60.5745 
-0.000345509      11.3406      37.4750 
-0.000975746      11.9878      49.5341 
-0.000461814      10.3667     -121.913 
0.000376863      8.27555     -29.5380 
0.000562276      9.44206      82.4559 
-0.000179116      9.26782      174.177 
0.000501830      6.19857     -153.351 
-0.000262439      11.7979     -150.219 
-0.000538731      3.22591     -19.5561 
-0.000182496      6.32358      178.007 
-0.000282568      11.2972      37.5192 
-0.000250490      10.3839     -121.854 
0.000132594      10.6724      146.311 
-0.000177688      7.68631      137.425 
-0.000135316      7.02185      128.178 
-0.000213312      5.59268      57.5595 
0.000213023      8.26595     -29.4204 
-4.48367e-05      6.91969      72.5062 
-0.000126210      6.21607     -53.2449 
-0.000238377      11.9651     -134.459 
0.000267420      2.48811     -85.3813 
-4.39497e-05      7.71523      169.243 
-0.000123924      11.8098     -134.382 
4.38402e-05      10.3677      146.648 
0.000122747      5.82417      164.057 
-0.000230803      6.91363      72.6664 
-8.33687e-05      7.51171      169.257 
-4.27997e-05      9.26982      174.057 
-0.000301031      8.40223     -136.158 
0.000196788      10.3508      146.586 
-0.000317748      8.05588     -22.1691 
-0.000437975      7.73894      169.124 
-0.000339088      7.03393      128.303 
-0.000117318      2.35305     -117.873 
7.99359e-05      9.48693     -34.6931 
-0.000233214      11.1774      37.7292 
0.000183056      10.8744      145.111 
-0.000117750      7.03383      10.3185 
-0.000378316      7.33924      84.0551 
-0.000242621      6.36481      177.838 
-0.000117048      6.14810      52.5329 
0.000370960      9.50298     -34.6262 
-0.000212892      11.6668     -47.7789 
-0.000177375      7.70069      137.524 
0.000549579      10.2987     -173.868 
-3.98193e-05      11.8238     -134.316 
-0.000220992      10.0356     -22.3750 
0.000233590      11.2666      125.608 
0.000259937      6.98939      92.9539 
-3.90625e-05      10.6686      55.3867 
0.000137925      6.58208      88.6086 
-0.000108434      2.38809     -126.477 
-3.85474e-05      6.43561     -55.1240 
-0.000171726      10.9192      55.1457 
3.82380e-05      11.6645     -144.703 
-0.000133881      10.1107     -177.392 
0.000143986      12.2729      126.384 
0.000193898      9.08853      62.4765 
-7.39470e-05      2.58760      60.8631 
-7.28111e-05      7.49181      169.228 
0.000142896      3.56028     -152.565 
-3.74332e-05      12.0009      49.4605 
0.000104641      8.94163     -144.285 
-0.000136108      9.69002     -7.82891 
0.000162144      7.48836     -34.1152 
8.81234e-05      10.5646      144.867 
-0.000291701      10.3268     -8.23844 
-7.01440e-05      7.58846     -97.7231 
0.000582197      11.6528     -144.784 
0.000221557      9.67690      171.083 
0.000279575      10.3369      52.3107 
-0.000102647      10.4831     -165.300 
-0.000229984      11.8096     -134.246 
-6.99252e-05      6.41962     -55.0244 
-0.000177527      9.96457      5.41436 
-0.000178443      7.73569     -135.106 
0.000427677      7.10885     -130.321 
0.000194029      9.18753      100.285 
0.000101726      3.98186     -1.72786 
-0.000164990      10.0176      153.690 
0.000330097      9.15072     -171.075 
-0.000379782      11.2050      28.5783 
-0.000131830      6.14501      52.2723 
0.000290084      11.8786      147.515 
0.000338690      12.2712      54.4196 
-6.58995e-05      9.24810     -4.46752 
0.000345697      10.3619      146.493 
-3.47436e-05      10.1681     -92.2543 
-0.000117266      9.69280     -7.94756 
-3.46169e-05      5.59898      57.8457 
-6.70570e-05      9.46728      35.3693 
0.000128728      9.65583      53.0838 
0.000122328      1.91059     -70.4264 
-0.000172442      2.56993      60.6432 
-0.000125420      7.01389      10.3482 
3.39581e-05      6.20765     -153.602 
-0.000120198      4.85414      146.769 
3.36889e-05      8.18794      36.7586 
-3.34428e-05      10.3732     -121.758 
-3.34044e-05      10.1487     -92.3731 
0.000509901      11.1610      156.558 
0.000124545      8.32993      164.830 
-0.000300016      11.9914     -148.641 
3.31688e-05      5.84293      164.109 
-6.47064e-05      7.21416      66.9900 
-9.07392e-05      6.48925     -50.1274 
9.41859e-05      13.0659      128.536 
-0.000133591      12.3094     -138.227 
-0.000143829      6.89501      72.6181 
-0.000147494      9.21576     -147.587 
-0.000116615      11.9788     -134.525 
-0.000327139      4.85723     -54.2154 
9.45709e-05      6.52011      90.0000 
6.20580e-05      6.96915     -87.0375 
-0.000211170      10.1293     -92.4881 
3.23823e-05      3.54297     -152.420 
9.22036e-05      12.5015     -35.9551 
0.000147676      8.20008      36.8720 
0.000107577      5.00307      177.937 
0.000170625      12.2845      126.458 
-0.000303708      11.4341     -150.791 
-6.13306e-05      2.44666      81.5344 
0.000413560      10.2485     -4.25359 
3.17066e-05      9.32446     -17.3471 
0.000309519      10.9483     -63.9952 
0.000109099      8.65929      64.2632 
8.87750e-05      13.3438     -40.8064 
0.000141571      11.9983     -127.959 
0.000297161      3.55099     -152.856 
0.000237056      11.4977      120.758 
-6.02025e-05      11.7684     -59.1208 
-3.10815e-05      3.33149     -85.1806 
-0.000204831      6.06051      175.270 
3.09434e-05      6.71250     -84.3544 
-5.95502e-05      12.0053     -142.308 
-0.000111041      9.05841     -149.190 
-5.65263e-05      6.41469     -54.7724 
-3.07753e-05      2.37183     -126.768 
3.07262e-05      10.8584      145.052 
5.67947e-05      10.9437     -61.7498 
-3.05286e-05      6.16200      178.514 
-0.000114833      5.25953      62.8537 
-5.86019e-05      8.72005     -6.71589 
-3.04890e-05      6.42414      52.8423 
-3.03764e-05      8.42113     -47.2136 
-3.02550e-05      9.48381      35.2984 
5.91018e-05      5.88319     -98.4050 
