! Center RA: 12 21 31.69052,  Dec: +28 13 58.50011 (2000.0)
! Established model.
! Flux (Jy) Radius (mas)  Theta (deg)  Major FWHM (mas)  Axial ratio   Phi (deg) T \
! Freq (Hz)     SpecIndex
 0.0241437    0.0202604      90.0000 
 0.0190743    0.0202604      0.00000 
 0.0150319    0.0286526      45.0000 
0.00564848      0.00000      0.00000 
0.00122517     0.279894      90.0000 
 0.0118756     0.259634      90.0000 
0.00236608    0.0446338      63.0042 
0.00708196    0.0720098      56.4755 
0.000417719     0.107434      68.2729 
0.00225284    0.0896014      63.6495 
0.00878776     0.280627      94.1402 
0.00232915    0.0202604      180.000 
0.00991088     0.116465      58.9729 
0.000583293     0.100252      53.2159 
0.00104429     0.300838      93.8616 
0.00309797    0.0446338     -153.004 
0.000250418     0.302778      97.5477 
0.00293114     0.322129      97.0919 
0.00307092    0.0562440     -135.000 
0.00224147     0.345185      100.015 
0.000879981     0.113549      45.0000 
0.00129405     0.369026      102.567 
0.00299399     0.128090      51.1829 
0.000304636    0.0446338     -116.996 
0.00116176     0.388092      101.940 
0.00138349    0.0720098     -123.524 
0.000271923     0.407936      101.351 
0.00288639    0.0633577     -108.650 
0.000133799     0.463888      97.4354 
0.000719232     0.392593      104.727 
0.000702304     0.483985      97.1250 
0.000505484     0.373757      105.487 
0.000594676     0.526180      98.7772 
0.000370446     0.592344      101.694 
0.00220302     0.128090      38.8171 
0.000475004     0.616492      103.157 
0.000227876     0.640096      104.460 
0.000460364     0.506166      99.1272 
0.000443057     0.664933      105.714 
0.000111631     0.412220      104.011 
0.000714445     0.486913      99.4914 
0.000109014     0.398226      107.547 
0.000987608     0.690066      106.878 
0.000697981     0.417588      106.709 
0.000561681     0.714519      107.921 
0.00114570     0.144435      33.7726 
0.000250912    0.0600310     -90.0000 
0.000669854     0.423858      109.333 
0.000199472    0.0633577     -71.3505 
0.000689563     0.740145      108.931 
0.000262336     0.100252     -143.216 
0.000436046    0.0720098     -56.4755 
0.000268000     0.113549     -135.000 
8.16660e-05     0.746703      110.347 
0.000691600     0.772836      111.233 
0.000388287     0.503350      96.8496 
0.000157523     0.152624      23.1616 
0.000755039    0.0848966     -45.0000 
0.000304578     0.128090     -141.183 
0.000852202     0.781960      94.4029 
0.000299788     0.134233     -153.435 
0.000227766     0.161670      29.7779 
0.000349485     0.430710      111.783 
0.000579300     0.500328      73.7123 
0.000550166     0.170734      20.5855 
0.000214030     0.798447      112.081 
0.000470552     0.805984      113.367 
0.000331850     0.506146      71.5919 
0.000329940     0.152624     -156.838 
0.000269283     0.100252     -36.7841 
6.50266e-05     0.803932      95.7319 
6.40231e-05     0.832685      114.094 
6.35260e-05     0.449587      110.825 
7.99544e-05     0.521537      94.3734 
0.000680827     0.783776      95.8798 
0.000156745     0.520413      92.2312 
0.000227645     0.520018      90.0000 
0.000287733     0.520413      87.7688 
0.000140843     0.503350      83.1504 
0.000785938     0.786014      97.2946 
0.000342591     0.178866      63.3275 
0.000205089     0.116465     -31.0271 
0.000452432     0.506166      80.8728 
0.00168230     0.134233     -26.5651 
6.50210e-05     0.538618      105.101 
0.000310338     0.184676      49.4492 
0.000250432     0.788842      98.7544 
0.000309530     0.913675      113.217 
0.000244961     0.544027      107.085 
0.000653121      1.17370      113.074 
0.000353631     0.509625      78.7066 
0.000289391     0.921540      114.332 
0.000115368     0.184676      40.5508 
0.000274988     0.550320      109.102 
0.000114360     0.304558      113.217 
0.000836805      1.19237      112.692 
5.57511e-05     0.188432      31.9812 
0.000268027     0.764371      96.0296 
0.000318431     0.340058      118.035 
0.000216211     0.948403      114.943 
0.000160727     0.205897      28.9938 
0.000623894     0.957123      116.043 
0.000347247     0.493986      68.6188 
0.000248141     0.215843      21.8384 
0.000385095     0.762509      94.5155 
0.000286140     0.557279      111.071 
0.000194861     0.366905      119.396 
0.000347399     0.128090     -38.8171 
9.71601e-05     0.152624     -23.1616 
0.000964453      1.20033      113.584 
0.00135144     0.144435     -33.7726 
0.000516898     0.491629      63.4349 
0.000225733     0.227911      15.2717 
0.000888287     0.377263      122.078 
0.000531503     0.761182      92.9950 
8.58871e-05     0.569504      108.435 
0.000371711     0.965848      117.083 
0.000125618     0.223431      10.2532 
0.000224933     0.576231      110.346 
0.000442261     0.243395      9.40424 
0.00112444     0.365154     -99.4623 
0.000868528      1.21892      113.203 
0.000152586     0.983930      116.546 
0.000660655     0.493955      58.2899 
0.000506454     0.760412      91.5268 
0.000625505     0.993150      117.591 
0.000143284      3.09905      108.435 
0.000297564      3.09270      108.079 
0.000360063     0.404832      122.895 
6.40748e-05     0.975239      118.143 
0.000325574     0.262662      8.70883 
0.000200881     0.581411      93.9223 
3.12738e-05     0.588045      107.834 
0.000263287      3.07345      108.196 
0.000481655     0.760142      90.0000 
0.000232058      3.29535      108.769 
0.000480046     0.500058      53.1129 
0.000588834     0.416183      125.237 
0.000256896      1.22674      114.041 
2.96313e-05     0.594563      109.693 
0.000539154      1.00269      118.617 
0.000166341     0.583302      112.144 
0.000619482      1.65502      134.504 
2.79471e-05     0.580403      92.0005 
0.000679875      3.32083      108.975 
0.000184677      3.83229      101.132 
0.000182370      1.20827      114.432 
2.71265e-05      3.06741      107.850 
0.000416548      3.04885      107.962 
0.000347745     0.601626      93.7903 
7.56301e-05     0.282706      8.08709 
5.12214e-05      1.77181      110.477 
2.50841e-05     0.601418      111.443 
0.000262666      1.79791      110.856 
0.000166547      1.18985      114.836 
0.00134335      3.82857      100.845 
7.21192e-05     0.603304      95.7106 
2.41878e-05     0.260423      4.46202 
7.08408e-05      1.33443      109.240 
2.35989e-05     0.280627      4.14019 
0.000353412     0.369026     -102.567 
9.18027e-05      1.01195      127.771 
0.000170149     0.591236      113.962 
6.83297e-05     0.259634      0.00000 
0.000230783     0.760412      88.4732 
0.000195800      1.35358      108.957 
8.89461e-05     0.496341      49.9061 
0.000307791      1.02448      128.666 
0.000685909      3.02335      107.715 
0.000556551     0.994616      120.163 
0.000444308     0.240977     -4.82291 
0.000351413      1.80523      111.456 
0.000286574     0.484006      51.6731 
8.20663e-05      1.79712      124.573 
0.000215488      1.37204      108.693 
9.10743e-05     0.100252     -126.784 
0.000465636     0.572781      114.786 
1.96803e-05      1.21679      115.301 
1.96413e-05     0.113549     -45.0000 
1.91527e-05     0.780666      87.0798 
0.000255359     0.223431     -10.2532 
0.000341291      1.80869      125.101 
1.88066e-05      2.58184      110.394 
0.000283450      2.57510      109.987 
0.000221377      1.03726      129.540 
0.000121701     0.621094      93.6713 
0.000558430      1.36592      107.917 
0.000150375     0.761182      87.0050 
1.82792e-05      1.34736      108.173 
0.000400644      1.64088      133.999 
0.000326907      2.29298      113.654 
8.36761e-05     0.170734     -159.414 
0.000145892      1.81245      112.030 
4.99894e-05     0.427737      127.372 
0.000323593      3.34589      109.195 
0.000334343      4.42743      111.464 
8.01016e-05     0.481580      48.4109 
0.000152103     0.622720      95.5320 
0.000314388      4.42006      111.220 
0.000610957     0.349279     -103.290 
0.000539594      2.39611      123.426 
1.53274e-05      1.23513      114.899 
8.88295e-05     0.466621      46.7594 
8.26059e-05      3.07012      114.228 
0.000141941      1.04979      130.361 
0.000532741      3.00406      107.833 
0.000109470     0.223431     -169.747 
0.000328474      2.25864      112.936 
0.000106407     0.781960      85.5971 
4.23177e-05      1.25286      114.523 
0.000375180     0.642889      95.3579 
8.16172e-05     0.452074      45.0000 
4.97335e-05     0.424884      131.205 
2.57080e-05      1.24458      113.675 
2.58124e-05      1.79080      110.250 
6.37277e-05      4.39526      108.020 
0.000401319      1.06302      131.194 
0.000316891     0.438496      43.1971 
7.39322e-05      2.41304      123.161 
6.04808e-05      1.28401      108.149 
3.77350e-05      1.38521      107.660 
1.28031e-05      1.83581      113.768 
6.06203e-05      2.41756      128.965 
1.24592e-05      1.84407      114.344 
0.000138812     0.260423     -4.46202 
1.23572e-05      1.85220      114.893 
4.85318e-05      4.41453      107.939 
3.49481e-05     0.189835     -161.565 
0.000135650      3.09693      114.416 
1.22299e-05      1.77743      109.047 
1.22067e-05      1.27132      109.301 
3.61547e-05      1.86082      115.459 
6.95970e-05      3.08861      114.074 
9.21493e-05      1.41049      108.165 
0.000238258      1.08285      78.2852 
0.000249512      1.26477      108.435 
2.36745e-05      2.54240      109.285 
8.78945e-05     0.645096      97.1498 
2.33954e-05      1.78343      107.634 
0.000109358      1.00495      121.162 
0.000213800      4.40856      107.698 
3.39072e-05      3.37171      109.407 
6.82185e-05      1.86962      116.020 
0.000585249      5.25691      107.263 
6.19662e-05     0.243395     -170.596 
0.000613244      3.82481      100.547 
0.000196399      2.42988      129.323 
3.11786e-05     0.624998      97.3810 
8.40284e-05      2.53603      108.869 
4.35958e-05      1.77740      107.012 
0.000182995     0.424483      135.000 
0.000181659      1.87826      116.555 
0.000119421      3.11539      114.262 
8.02841e-05      1.42904      107.921 
5.81367e-05      4.43719      117.375 
3.92665e-05      1.77158      106.385 
1.02675e-05      3.35261      109.522 
1.01631e-05    0.0828082     -104.162 
0.000211964      5.70716      101.113 
0.000186370      2.99792      107.464 
3.88208e-05      1.01558      122.140 
0.000100698      4.55956      104.224 
1.86748e-05      3.37824      109.719 
9.34741e-05      4.45302      111.615 
0.000127968     0.998483      122.759 
4.51945e-05      4.40244      107.447 
0.000102889      3.72558      138.266 
9.24597e-06     0.854760      79.2228 
0.000136153      1.88740      117.105 
0.000241564      1.40453      107.409 
5.94898e-05      2.52955      108.435 
0.000281317     0.438496      46.8029 
3.37161e-05    0.0802914     -90.0000 
9.06748e-06     0.858779      77.8948 
2.60865e-05      1.76617      105.778 
4.90963e-05     0.262662     -171.291 
0.000107392      4.46349      117.483 
2.53522e-05     0.863255      76.5798 
6.56133e-05      4.41577      107.117 
3.98252e-05      3.38513      110.042 
1.65149e-05     0.339925      0.00000 
4.77865e-05     0.665204      96.9326 
0.000168855      4.55462      103.977 
0.000155885      1.62738      133.505 
0.000179628      1.25851      107.560 
5.82724e-05      2.22439      112.178 
0.000256992      2.97348      107.219 
7.28259e-05     0.867991      75.3270 
3.02785e-05      1.76077      105.144 
1.54223e-05     0.360186      0.00000 
9.30025e-05      3.74016      138.465 
6.85480e-05      2.49866      107.711 
0.000310922      1.89672      117.650 
6.53368e-05      4.41007      106.875 
0.000258403      1.00917      123.690 
7.76688e-05      2.44559      129.022 
0.000400401      5.71110      101.313 
0.000122027     0.424483      45.0000 
1.45396e-05      1.07906      79.2996 
0.000283571      3.64562      125.178 
7.38351e-06      3.04237      114.884 
4.24343e-05     0.647814      98.8622 
2.14049e-05    0.0828082     -75.8378 
2.14172e-05     0.438496      136.803 
1.43286e-05     0.379696      0.00000 
3.42318e-05      3.39213      110.363 
4.72317e-05      4.44560      111.372 
2.12836e-05      3.02400      115.045 
1.42833e-05     0.282706     -171.913 
1.41832e-05      1.07647      132.005 
2.66613e-05      3.14121      114.441 
9.21243e-05      1.06150      132.737 
6.90639e-05     0.320306     -176.373 
5.88382e-05      3.87023      141.297 
2.64463e-05      3.00633      115.203 
1.34865e-05      4.54065      104.284 
6.35577e-05     0.651243      100.624 
1.95263e-05     0.399956      0.00000 
6.18718e-05      4.40423      106.623 
5.52003e-05      1.09824      79.4886 
6.61065e-06      4.53104      104.835 
0.000165101      3.66220      124.996 
8.25360e-05     0.873342      74.0411 
0.000105056      4.51671      105.149 
6.51533e-06     0.438496      133.197 
0.000228325      2.45839      129.389 
7.14878e-05      3.46777      97.2849 
4.24723e-05      2.98801      115.368 
1.20721e-05      1.75559      104.505 
1.83386e-05      3.15966      114.289 
0.000182602      2.36867      123.277 
0.000347940      3.85759      141.532 
8.78448e-05      2.49257      107.268 
0.000105331      3.75535      138.670 
6.07703e-06     0.452074      135.000 
1.77550e-05     0.440193     -2.63804 
3.82339e-05      4.47186      111.519 
0.000123908      5.52124      102.975 
6.21085e-05      3.18648      114.471 
7.60034e-05     0.655281      102.365 
2.63295e-05      2.21710      111.711 
1.13916e-05      2.99642      115.705 
0.000116571      4.49083      117.593 
1.09766e-05      3.39897      110.672 
3.27297e-05     0.340529     -176.589 
2.68333e-05     0.460433     -2.52200 
7.68288e-05      3.48786      97.2427 
1.11213e-05      2.96972      115.536 
3.20856e-05      5.24363      107.540 
6.34977e-05      4.50304      105.454 
2.07480e-05      1.75080      103.887 
3.53355e-05      4.39848      106.370 
7.08685e-05      2.97818      115.874 
7.67037e-05      1.07484      133.501 
1.52566e-05      1.27784      107.286 
0.000109770      4.56946      103.669 
2.52032e-05     0.354273     -106.362 
0.000113420      1.35982      107.105 
5.15726e-06     0.360186      180.000 
0.000106148     0.878907      72.8181 
6.44078e-05     0.379696      180.000 
9.86859e-05      5.22503      107.605 
5.73864e-05      1.83693      125.255 
9.86178e-06     0.480675     -2.41573 
2.84563e-05     0.659734      104.020 
8.13500e-05      2.38501      123.020 
6.70927e-05      4.22837      113.412 
9.56012e-06      3.80867      100.903 
0.000187158      3.81530      97.8337 
0.000148863     0.521537     -4.37341 
1.86767e-05      2.94816      106.959 
4.33225e-05      3.40617      110.990 
2.26796e-05     0.679409      103.606 
0.000208591     0.424884      48.7950 
0.000128346     0.334882     -107.339 
4.71258e-06      3.81812      98.1349 
4.38752e-05      3.81241      101.191 
0.000179822      2.96064      116.039 
4.35296e-05      3.46535      96.9650 
6.35143e-05      1.73187      104.042 
1.78334e-05      4.22036      113.160 
8.94899e-06      5.28332      106.723 
0.000151661      2.94231      106.582 
1.28641e-05      2.20968      111.223 
0.000125685      1.02055      124.637 
8.05488e-05     0.684458      105.255 
2.08801e-05      4.17107      110.779 
3.55529e-05      1.34118      107.350 
0.000124810      1.30256      107.882 
5.40681e-05      1.11816      79.6780 
8.57863e-05      1.06077      134.226 
2.07665e-05      3.21264      114.655 
4.96942e-05      5.29695      106.450 
4.14654e-05     0.400469      177.100 
2.34890e-05      3.81640      101.489 
4.85324e-05      3.48546      96.9246 
0.000105135      4.58459      103.372 
3.29595e-05      2.17730      110.434 
3.64994e-05      4.16419      110.528 
8.78314e-05      5.20572      107.672 
7.55370e-05      3.43139      111.178 
1.05436e-05      2.46163      106.524 
0.000100561      4.51817      117.701 
5.60384e-05      1.97950      119.675 
4.55339e-05      1.32186      107.612 
1.45954e-05      3.82033      101.776 
3.84158e-05      4.49788      105.214 
0.000165202      3.67342      125.245 
2.94876e-05      4.20174      113.268 
1.38054e-05      3.82452      102.073 
5.26377e-05      1.30249      79.3763 
4.42678e-05      2.35803      122.881 
4.96584e-05      3.46295      96.6322 
2.55751e-05     0.441522      174.832 
3.90743e-05     0.885104      71.5651 
9.82853e-06      4.15713      110.267 
9.91869e-06      3.82881      102.369 
2.93525e-05      2.17031      109.932 
0.000128342      4.64751      103.435 
1.57251e-05      3.83303      102.654 
4.56761e-05      4.13183      110.097 
8.65403e-06      2.45594      106.070 
3.04542e-06     0.555796      52.2946 
3.30235e-05      3.83752      102.949 
3.01615e-06      2.94245      116.212 
2.66417e-05      1.61350      132.984 
1.92635e-05      3.77059      138.873 
1.91762e-05      1.86474      125.385 
3.04980e-05      2.47130      129.752 
3.81414e-05      1.06077      135.774 
2.64642e-05     0.568413      50.6787 
5.31466e-05      2.96959      116.390 
2.95063e-06     0.463888      172.565 
2.44230e-05      4.20979      113.522 
5.75780e-06     0.466942      170.099 
4.02076e-05      5.18642      107.740 
4.90944e-05      4.56489      103.431 
4.40589e-05      3.48307      96.5937 
1.88469e-05     0.519084      164.316 
2.78751e-06    0.0896014     -116.350 
2.78030e-06     0.490508      168.260 
3.62680e-05      3.84211      103.244 
1.60165e-05      3.43877      111.493 
2.73236e-06      1.13810      79.8607 
5.23070e-06      3.87596      104.039 
2.71858e-05      3.23921      114.820 
-9.76114e-05      3.56655      102.627 
2.60114e-06      2.47408      129.091 
1.01272e-05      2.16374      109.447 
6.73976e-05      3.79598      97.8738 
1.24369e-05      2.48691      129.454 
1.00787e-05      2.37443      122.625 
1.74345e-05     0.544027      162.915 
1.23699e-05      1.98961      120.182 
7.46161e-06     0.873371      69.8991 
1.22227e-05      5.19961      107.460 
4.86977e-06     0.695981      108.415 
4.87295e-06      1.04726      136.539 
1.21614e-05      1.30893      108.726 
4.87292e-06     0.576909      123.649 
4.87198e-06      2.13138      108.601 
4.82705e-06      3.26612      114.993 
2.42531e-06      1.28258      79.2094 
0.000134797      8.30796      110.134 
0.000170857      8.31496      110.265 
3.15781e-05      8.32629      110.088 
9.71643e-06      8.31960      109.961 
1.83550e-05      8.32494      109.652 
8.51305e-05      8.32200      110.396 
8.71926e-06      8.33749      109.479 
1.66208e-05      8.35589      109.434 
8.01911e-05      8.37500      109.388 
0.000110005      8.32882      110.522 
0.000102547      4.11369      99.2372 
6.82658e-05      3.69876      111.568 
2.29255e-05      8.36829      109.257 
5.93352e-05      3.28921      97.6827 
3.83190e-05      3.22083      114.971 
2.10313e-05      1.87880      117.937 
5.14390e-06      8.29254      109.440 
1.00793e-05      4.11687      99.5052 
5.04626e-06      3.19492      114.801 
0.000577869      7.79870      42.6097 
8.52843e-05      8.10153      5.81040 
-0.000337159      10.9820     -67.9638 
0.000496921      8.08137      5.82494 
-0.000408103      9.79043     -54.3949 
-0.000157808      10.0644     -83.4971 
-0.000231665      7.02850      98.0150 
-0.000505863      6.90820      142.769 
0.000410620      8.64495     -94.3808 
8.10925e-05      5.98850      7.29243 
-0.000442906      10.2904     -84.3127 
0.000458450      4.67266      137.773 
0.000412007      6.54398      163.670 
-7.50788e-05      8.45990      34.4033 
-0.000537491      5.96335     -102.588 
-0.000175995      9.30375      115.466 
-0.000108253      3.91654      55.8228 
0.000140386      5.97092      7.50281 
0.000433113      9.34828      169.772 
-0.000374610      10.5665     -43.8491 
0.000264975      7.81362      42.5091 
0.000336567      8.76674      172.925 
-0.000266941      7.68100      46.1598 
0.000228451      3.73138     -130.433 
7.10429e-05      7.35417     -45.0000 
0.000231560      6.22677     -5.34508 
