! Center RA: 12 21 31.69052,  Dec: +28 13 58.50011 (2000.0)
! Established model.
! Flux (Jy) Radius (mas)  Theta (deg)  Major FWHM (mas)  Axial ratio   Phi (deg) T \
! Freq (Hz)     SpecIndex
 0.0181086    0.0447214      63.4349 
 0.0288997    0.0632456      71.5651 
 0.0124870    0.0400000      90.0000 
0.00291746     0.362215      83.6598 
 0.0207476     0.342345      83.2902 
0.000350700     0.345254      79.9920 
0.00540801    0.0824621      75.9638 
0.00660605     0.796241      115.278 
0.00364792     0.126491      71.5651 
0.00140007     0.145602      74.0546 
0.00515050     0.164924      75.9638 
0.00707296     0.340588      86.6335 
0.00823176     0.761577      113.199 
0.00322436     0.184391      77.4712 
0.00152114     0.360555      86.8202 
0.00268572     0.769675      114.567 
0.00113281     0.486621      99.4623 
0.00144429     0.203961      78.6901 
0.00811477     0.189737      71.5651 
0.000860214     0.509902      101.310 
0.00122107     0.320624      86.4237 
0.000206663     0.533667      102.995 
0.00203895     0.170880      69.4440 
0.00238990     0.441814      95.1944 
0.000203215     0.557853      104.534 
0.00133815     0.582409      105.945 
0.00198488     0.300666      86.1859 
0.00151455    0.0565685      45.0000 
0.00340620     0.787909      113.962 
0.00546910     0.607289      107.241 
0.00372288    0.0447214      26.5651 
0.000505171     0.463897      97.4314 
0.000166444     0.280713      85.9144 
0.00123032     0.806226      113.385 
0.00389857     0.444072      97.7652 
0.000157393     0.320000      90.0000 
0.00177391     0.300000      90.0000 
0.00166245     0.817068      111.541 
0.000136614     0.466905      99.8658 
0.00410031    0.0400000      0.00000 
0.00124412     0.588218      107.819 
0.000858681     0.835703      111.038 
0.000251792     0.787147      117.216 
0.000617103     0.613514      109.026 
0.00118910     0.280000      90.0000 
0.000606475     0.828734      109.747 
0.000120756     0.769415      117.897 
0.000786714     0.778974      119.197 
0.00231155     0.847585      109.290 
0.000106745     0.421900      95.4403 
0.00142059     0.788923      120.466 
0.000484973     0.424264      98.1301 
0.00249488     0.240832      85.2364 
9.54353e-05     0.632456      108.435 
0.00158284     0.873155      110.095 
9.23000e-05     0.300666      93.8141 
0.000687345     0.626418      106.699 
9.06533e-05    0.0632456      18.4349 
8.93197e-05     0.388330      101.889 
0.000658294     0.161245      60.2551 
0.00184642    0.0600000      0.00000 
0.000576953     0.260000      90.0000 
0.000250612     0.368782      102.529 
0.00126770     0.799250      121.701 
0.000831941     0.461736      94.9697 
0.000899340     0.866487      108.853 
0.000932848     0.144222      56.3099 
0.000550577     0.703420      104.826 
0.000512253     0.392938      104.744 
0.000213636     0.260768      85.6013 
0.000566923     0.394462      59.5345 
0.000771185    0.0447214     -26.5651 
0.000454006     0.722772      104.421 
0.00226405     0.891964      109.654 
0.000548566     0.398497      107.526 
6.62711e-05     0.460435      92.4896 
0.000905261     0.698570      103.241 
0.000251219     0.481664      94.7636 
0.000994289     0.141421      45.0000 
0.00130239     0.809938      122.905 
0.00104996    0.0282843     -45.0000 
0.000281696     0.156205      50.1944 
0.000866171     0.480416      92.3859 
5.59222e-05     0.411825      60.9454 
0.000514451      2.17816      103.271 
0.000722892     0.404969      110.225 
0.000669850     0.421900      58.5704 
0.000283067     0.793221      123.690 
0.000601006      2.17366      102.758 
0.000658783    0.0400000     -90.0000 
4.24307e-05     0.601664      105.422 
0.000251487     0.424264      81.8699 
0.000452598     0.404475      81.4692 
0.000588179     0.421900      84.5597 
5.86358e-05     0.223607      79.6952 
5.84801e-05     0.715542      116.565 
0.000171600     0.152315      66.8014 
5.74638e-05     0.724707      117.979 
0.000278348     0.772528      111.251 
0.000376170     0.243310      80.5377 
0.000277093      1.98404      104.597 
0.000218264     0.707107      118.740 
0.000408577     0.791202      110.726 
0.000309113      1.96987      105.306 
0.000251333      2.10647      102.057 
0.000342658     0.716938      120.141 
0.000710914     0.263059      81.2538 
0.000196929     0.128062      51.3402 
0.000369353      1.96469      104.744 
4.88938e-05     0.689638      119.539 
0.000489734     0.809938      110.225 
0.000479152      2.12603      101.944 
0.000458688     0.699714      120.964 
0.000138460     0.113137      45.0000 
0.000131532     0.100000      36.8699 
0.000432209      1.94535      104.893 
0.000165911    0.0894427      26.5651 
0.000355993     0.441814      84.8056 
0.000383729     0.727186      121.504 
0.000267659    0.0824621      14.0362 
0.000644697      2.13026      102.470 
0.000369071     0.461736      85.0303 
0.000176578     0.854400      110.556 
0.000735570      2.04949      118.566 
0.000104132      1.92094      104.470 
6.80591e-05     0.107703      21.8014 
3.37955e-05     0.644981      119.745 
0.000129489      1.90158      104.621 
3.29566e-05     0.617738      119.055 
0.000243200     0.134164      26.5651 
0.000186122    0.0447214     -63.4349 
6.39592e-05     0.545894      118.443 
3.15625e-05      1.95028      103.039 
6.22589e-05     0.806226      119.745 
0.000263359      2.06708      118.301 
0.000120077     0.518845      117.553 
0.000383904     0.481664      85.2364 
3.05143e-05      1.89663      104.036 
3.02133e-05      1.96540      102.339 
0.000278606     0.816333      120.964 
8.74118e-05      1.88223      104.775 
5.69631e-05      2.13467      102.995 
5.78461e-05     0.910824      109.231 
0.000110230      1.98081      101.650 
0.000165067     0.491935      116.565 
0.000293954     0.917606      110.410 
0.000182049      2.07663      118.787 
0.000186148     0.152315      23.1986 
5.44145e-05      1.87723      104.184 
0.000592004    0.0632456     -108.435 
2.74678e-05      2.11092      99.8193 
9.91287e-05     0.679117      103.627 
7.91245e-05      1.86290      104.931 
7.90475e-05      2.16342      103.908 
2.60078e-05      2.28473      103.671 
9.91329e-05     0.465188      115.463 
9.87794e-05      2.30417      103.554 
9.71015e-05      1.97687      101.083 
0.000145442     0.826801      122.152 
2.51608e-05      2.10447      98.7462 
0.000737912     0.936376      109.983 
0.000165579      1.85785      104.335 
0.000212785     0.145602      15.9454 
4.88235e-05     0.501199      118.610 
4.75948e-05      2.16832      104.421 
0.000356089     0.501597      85.4261 
2.35833e-05      2.30894      104.036 
4.54662e-05      2.10152      98.2072 
0.000214715     0.474131      117.646 
0.000130325      1.89621      116.295 
4.56131e-05      2.32362      103.438 
0.000214780     0.843801      121.430 
4.51764e-05      2.01911      123.690 
0.000162749      1.97312      100.513 
2.23025e-05      2.19791      105.301 
4.39884e-05      2.32835      103.917 
0.000105849      2.09418      118.523 
0.000147546     0.164924      14.0362 
0.000518888      2.03027      124.160 
4.30184e-05      1.84358      105.092 
2.14882e-05      2.34307      103.325 
8.07188e-05      2.09876      97.6668 
2.13328e-05      2.52769      105.136 
0.000218640      2.54700      105.018 
7.94931e-05      2.32422      105.471 
0.000241337      1.83848      104.490 
2.04200e-05      2.33855      102.848 
7.78083e-05      1.88743      115.750 
0.000254761     0.854400      122.574 
7.53926e-05     0.416173      54.7824 
6.63791e-05     0.674685      101.976 
0.000112255     0.161245      7.12502 
0.000130613     0.447214      116.565 
0.000123554      2.11178      118.264 
8.74333e-05      2.09619      97.1250 
0.000190523      2.56125      104.470 
0.000106477      1.86944      116.017 
1.84535e-05      2.34350      105.341 
8.19741e-05      2.35372      102.265 
0.000228964    0.0721110     -123.690 
8.57481e-05      1.96957      99.9406 
1.77538e-05      2.35805      102.740 
5.18053e-05     0.456508      118.811 
0.000131996     0.181108      6.34019 
1.74957e-05      2.32964      105.945 
0.000149879     0.428019      52.5946 
0.000464502     0.521536      85.6013 
1.70907e-05      2.34887      105.811 
6.51082e-05      2.56632      104.903 
0.000255236     0.429418      117.759 
6.47415e-05      1.86075      115.463 
0.000111176     0.865332      123.690 
3.13591e-05      2.37360      106.144 
0.000118302      2.09380      96.5819 
0.000171726      1.82428      105.255 
8.74276e-05      1.94987      100.042 
0.000324087     0.955196      109.573 
1.57717e-05      2.36812      105.680 
0.000123404      2.12941      118.009 
0.000262002      2.58062      104.359 
8.87966e-05      1.84272      115.731 
7.44513e-05     0.180000      0.00000 
0.000129782     0.882043      122.969 
5.70479e-05      2.46163      106.521 
9.07688e-05      2.34955      101.788 
9.54825e-05    0.0848528     -135.000 
1.42005e-05      2.23365      106.650 
0.000120773     0.200000      0.00000 
1.39450e-05      1.83412      115.168 
2.72168e-05      1.78090      122.619 
0.000101150      1.81604      115.436 
0.000188239     0.893085      124.046 
5.20323e-05      2.09160      96.0377 
1.34297e-05      2.44246      106.654 
7.55499e-05     0.439090      120.069 
1.30588e-05      1.77020      122.074 
7.86620e-05      1.94648      99.4623 
6.12166e-05      2.46739      106.966 
3.53422e-05      2.23946      107.140 
0.000108092     0.100000     -143.130 
3.72178e-05      1.75328      122.421 
5.79633e-05     0.660303      125.134 
5.67612e-05     0.670820      100.305 
0.000387199     0.440454      50.5275 
0.000133284      1.81912      104.647 
0.000126844     0.220000      0.00000 
8.17592e-05      2.06969      95.5453 
0.000128604      2.04685      123.845 
0.000120721     0.411825      119.055 
0.000281393      2.60000      104.250 
2.36642e-05      1.74264      121.866 
6.65567e-05      2.14709      117.759 
3.44928e-05      1.19231      112.694 
1.16218e-05     0.549181      123.111 
0.000144011      2.34555      101.310 
6.49447e-05      1.27201      106.440 
0.000293442      2.87340      123.358 
2.27777e-05      1.72569      122.217 
8.49971e-05     0.700000      126.870 
8.30336e-05      1.27781      107.301 
4.39974e-05      1.80754      114.864 
0.000125832     0.904434      125.096 
1.12346e-05      2.44826      107.103 
7.46537e-05      1.71511      121.651 
0.000158878     0.116619     -149.036 
0.000133594      1.20017      113.575 
0.000148498      3.90512      129.806 
9.27973e-05      2.06785      94.9937 
5.17654e-05      2.47330      107.409 
1.08145e-05      3.15125      106.595 
5.24264e-05      3.13209      106.699 
3.92720e-05     0.566039      122.005 
2.07505e-05     0.220907     -5.19443 
3.03471e-05      1.78941      115.133 
2.95963e-05      3.18402      106.044 
0.000145251     0.647765      98.8807 
4.91092e-05      3.11294      106.805 
2.99825e-05      2.15648      118.229 
0.000465164      3.22025      101.101 
9.45178e-05     0.240832     -4.76364 
8.83065e-05      2.22036      107.292 
5.58968e-05      1.68760      121.430 
4.80115e-05      1.23045      97.4716 
2.92930e-05      1.61901      117.198 
5.57076e-05      2.04480      93.9259 
0.000114087      3.67325      128.367 
6.12264e-05      1.78101      114.550 
7.08593e-05      2.16481      117.512 
0.000207515     0.916079      126.119 
1.87062e-05      2.45422      107.549 
0.000174549     0.728011      127.185 
0.000246858      4.38675      110.831 
0.000104677      1.59211      116.887 
6.95173e-05      3.13177      118.202 
2.67549e-05      1.80499      105.422 
3.59458e-05      3.11878      107.157 
3.58877e-05      2.17412      117.979 
0.000171313      3.20325      105.945 
5.46040e-05     0.310483      14.9314 
5.08571e-05      2.05806      124.308 
5.12921e-05      1.22801      96.5463 
5.10953e-05      1.28390      108.153 
1.77477e-05      2.36516      101.215 
1.75005e-05      2.47935      107.850 
6.70048e-05      2.58805      126.516 
3.46533e-05      2.34955      120.713 
0.000113516      1.72662      108.225 
8.26621e-05      2.04353      93.3665 
1.73311e-05     0.394462      120.466 
8.75447e-06      3.92051      129.618 
0.000164693      2.60000      126.870 
0.000438742      3.93329      129.843 
0.000391625     0.134164     -153.435 
0.000105153      2.34171      100.830 
0.000149373      9.45518      96.1930 
6.98397e-05     0.260768     -4.39871 
3.91771e-05      3.09968      107.266 
0.000146200      2.33940      120.292 
1.59123e-05      2.46033      107.993 
3.13903e-05      5.02872      111.463 
0.000193977      5.04734      111.380 
5.55672e-05      2.23580      111.516 
7.98240e-05      1.22589      95.6176 
7.55108e-05      1.20830      114.444 
0.000299114      5.14840      120.849 
7.89790e-06      4.39390      111.075 
5.24837e-05      1.69812      122.005 
0.000277973      4.65188      115.463 
0.000111782      1.29027      108.997 
7.18027e-05      1.60997      116.565 
7.63692e-05      2.87785      120.486 
6.31343e-05      2.04157      124.624 
0.000131211     0.421900      121.430 
5.46847e-05      1.77133      115.408 
2.24384e-05      3.11416      118.376 
5.78412e-05      2.04245      92.8064 
0.000182971      2.61939      104.142 
2.22591e-05      1.06471      95.3893 
2.14024e-05      2.48556      108.289 
6.88884e-05      2.36136      100.739 
9.35382e-05      9.45736      96.3134 
0.000244135      3.95990      107.337 
0.000183652      3.97899      107.251 
2.78315e-05      4.47571      114.274 
7.77312e-05      1.06301      94.3160 
2.62513e-05      2.22854      111.038 
0.000141454     0.302655     -7.59464 
8.17464e-05      3.12372      118.698 
0.000273241      6.01348      102.095 
2.01036e-05      2.02089      91.7014 
1.26987e-05      2.22639      107.784 
7.55843e-05      3.10567      107.618 
3.28015e-05      3.68570      128.611 
7.05204e-05      9.47293      96.0597 
2.53185e-05      1.72047      107.592 
0.000154181      4.45749      114.380 
4.77074e-05      2.49191      108.726 
0.000154529      3.22248      105.848 
1.27510e-05      2.04157      92.2457 
0.000176805     0.928009      127.117 
7.53709e-05      2.02040      91.1344 
5.37763e-05      1.44941      117.979 
8.74555e-05      1.22409      94.6859 
0.000148553      2.23258      108.273 
3.28298e-05     0.740270      128.418 
2.35196e-05      1.60112      115.925 
1.23910e-05      3.67010      128.806 
5.79340e-05      2.02514      124.946 
0.000353503      2.53140      95.4403 
4.67719e-05      2.85671      123.579 
0.000183026      2.86775      120.141 
0.000165469      4.71445      106.513 
4.03299e-05      3.68266      129.049 
1.77177e-05      1.70763      108.435 
3.32351e-05     0.541479      85.7636 
7.89166e-05      1.75328      115.688 
4.91399e-05      4.36096      110.679 
4.99433e-05      9.45958      96.4338 
1.67085e-05     0.948683      108.435 
0.000112257      1.06170      93.2397 
0.000199976      1.70141      107.796 
2.64278e-05      2.33803      100.349 
0.000149816      4.99091      116.668 
0.000123126      2.59615      127.488 
5.68052e-05      1.45890      118.673 
8.23501e-05      4.73362      106.444 
1.07852e-05      3.67984      129.487 
8.16237e-05     0.644981      97.1250 
3.57153e-05      2.00878      125.272 
0.000144052      2.49840      109.160 
6.32035e-05      3.67723      129.925 
1.52250e-05      2.04088      91.6847 
2.00153e-05      1.21672      115.301 
2.02749e-05     0.453431      48.5763 
5.62461e-05      9.49073      95.9268 
3.01426e-05      6.04639      116.311 
0.000134583      1.27138      109.290 
0.000127290      2.02010      90.5673 
0.000129564      2.35669      120.046 
6.87328e-05      9.44428      96.6886 
8.71965e-05     0.942550      107.281 
8.59727e-05      3.33928      119.021 
8.36071e-05      5.16558      120.735 
4.63706e-05      5.07326      111.508 
0.000173526      6.05528      116.480 
4.86016e-06      4.26277      108.605 
8.26682e-05      1.99249      125.605 
0.000101231      3.97311      106.975 
6.11556e-05      4.25643      108.350 
6.67053e-05      1.44139      119.055 
4.92791e-05     0.712180      128.157 
0.000108542     0.305941     -11.3099 
3.11438e-05      3.11178      107.969 
4.76172e-05      3.40412      126.399 
3.91858e-05     0.416173      125.218 
5.61804e-05      1.37011      123.690 
0.000193575      6.22164      102.249 
6.03799e-05      1.04173      93.3019 
0.000119487      3.66191      130.126 
1.67146e-05     0.438634      46.8476 
7.33697e-05      5.06597      111.297 
5.92637e-05     0.316228      18.4349 
8.19085e-05      9.51063      95.9144 
4.58329e-05      4.16927      109.913 
6.47414e-05      1.76284      114.821 
6.73761e-05     0.425206      48.8141 
0.000101843      4.73932      106.676 
3.76825e-05      9.42677      96.8235 
8.62194e-05      1.22262      93.7517 
2.83450e-05      2.60192      129.072 
2.19225e-05     0.561427      85.9144 
3.84434e-06      2.59260      128.108 
3.83916e-06      2.23329      109.895 
0.000154322      5.99393      102.135 
0.000105812      4.43103      114.251 
0.000110278      1.04077      92.2026 
2.84278e-05      6.11182      118.326 
0.000105349      1.38130      124.380 
6.83579e-05     0.410366      136.975 
7.32839e-05      5.87105      114.557 
2.03921e-05      3.39676      107.475 
0.000108825     0.944034      126.384 
3.56078e-06      3.35678      118.856 
3.53144e-06      2.00010      89.4271 
0.000142112      5.49531      114.513 
5.11230e-05      3.34718      118.556 
2.31452e-05      5.09188      111.425 
6.78342e-06      2.36812      127.451 
6.31566e-05      3.94614      130.066 
6.86109e-06      9.38469      96.7312 
2.96059e-05      2.02000      90.0000 
7.48129e-05      2.63879      104.036 
8.19347e-05     0.608276      80.5377 
2.61715e-05      1.97626      125.942 
1.49604e-05      1.69198      122.939 
3.30903e-05      3.21646      100.751 
8.72885e-05      6.09423      118.415 
5.06443e-05      1.45121      119.745 
0.000113781      9.38705      96.8525 
3.34503e-06      2.00420      126.069 
4.12030e-05      5.21429      124.056 
7.45663e-05      6.06422      116.650 
4.12139e-05      2.04039      91.1233 
9.77878e-05      6.31826      108.263 
4.45150e-05      2.06649      132.647 
6.26620e-06      9.46290      95.4576 
7.73307e-05      4.99992      116.873 
6.32382e-05      5.08460      111.215 
3.52360e-05      3.41585      107.374 
1.47105e-05      1.98091      88.2643 
3.64946e-05     0.622896      95.5275 
4.47504e-05      2.59915      129.693 
1.72155e-05      9.46101      95.3370 
1.49807e-05      4.25018      108.094 
3.70677e-05      4.18808      109.819 
1.91544e-05      1.39786      123.917 
3.53394e-05      2.59237      125.897 
3.42201e-05      1.68048      91.3639 
2.82446e-06      2.20735      107.942 
3.98004e-05      2.39107      133.305 
2.38760e-05     0.432666      123.690 
2.26680e-05      1.98806      126.409 
3.38643e-05      3.64664      130.329 
1.32877e-05      2.20127      107.447 
2.86268e-05      1.98162      87.6863 
3.08825e-05      5.06442      123.565 
1.00811e-05      9.53052      95.9020 
1.75423e-05      9.43926      95.2274 
1.64590e-05      3.41602      126.669 
9.47504e-06      3.12474      107.507 
4.90696e-05      3.94867      129.657 
3.73347e-05      3.49268      104.593 
3.91740e-05      6.05379      107.298 
2.54381e-05     0.310483     -14.9314 
2.27729e-05      3.19681      100.818 
1.82289e-05      2.19536      106.949 
2.05540e-05      3.36476      118.393 
3.83171e-05      5.18000      108.925 
3.58600e-05      3.65962      130.567 
1.57310e-05      1.77279      113.962 
1.11684e-05      2.06155      92.2240 
4.57892e-06     0.724707      129.401 
2.32297e-06      1.70880      122.574 
1.31353e-05      9.43746      95.1065 
1.09548e-05      5.07740      111.005 
1.31764e-05      5.89756      114.653 
4.47507e-06      9.53260      96.0216 
1.73652e-05      6.07664      118.505 
1.29716e-05     0.628013      80.8377 
