! Center RA: 12 21 31.69052,  Dec: +28 13 58.50019 (2000.0)
! Established model.
! Flux (Jy) Radius (mas)  Theta (deg)  Major FWHM (mas)  Axial ratio   Phi (deg) T \
! Freq (Hz)     SpecIndex
 0.0908855    0.0446338      153.004 
0.00466795    0.0202604      180.000 
0.00313087     0.128090      141.183 
0.00350264    0.0848966      135.000 
0.00223796     0.100252      126.784 
0.00192883    0.0397705      180.000 
0.00383955     0.128090      128.817 
0.00333602    0.0446338     -153.004 
0.00282352     0.141141      135.000 
0.00404700    0.0633577     -161.350 
0.00692953     0.144435      123.773 
0.00723365    0.0720098     -146.476 
0.000648290     0.161670      119.778 
0.00119735     0.266484      103.019 
0.00202226     0.271765      107.184 
0.00140921    0.0562440     -135.000 
0.00253257     0.100252      36.7841 
0.00226450     0.156126      129.735 
0.00596796     0.291183      106.006 
0.00239966     0.116465      31.0271 
0.00196634     0.169793      135.000 
0.000289130     0.188432      148.019 
0.000999782    0.0720098     -123.524 
0.000543529     0.172194      125.422 
0.000358949     0.197181      155.971 
0.00142429     0.134233      26.5651 
9.19661e-05     0.128090      38.8171 
0.000429814     0.465536      115.491 
0.00187427     0.121759      80.4216 
0.000350519     0.141777      81.7841 
0.000112292     0.100252      53.2159 
0.000509971     0.159832      90.0000 
0.000539778     0.306099      101.310 
0.000107524     0.140322      90.0000 
0.000404846     0.329594      104.100 
9.97403e-05     0.398226      107.547 
0.000476676     0.423858      109.333 
0.000286953    0.0896014      26.3505 
0.000351352     0.286260      102.105 
0.000680627     0.107434      21.7271 
0.00118958     0.180093      90.0000 
0.00124929     0.443026      108.466 
0.000439589    0.0286526     -45.0000 
0.000760829    0.0446338     -63.0042 
0.000163366     0.201375      95.7743 
0.000682622      1.22674      114.041 
0.000218203     0.126477      18.3275 
0.000888841      1.20827      114.432 
0.000829577     0.461573      107.699 
0.00117088      1.07228      98.5724 
0.000536911    0.0397705     -90.0000 
6.70218e-05     0.316312      108.392 
0.000368357     0.323277      111.801 
0.000588363     0.480914      106.965 
0.00113167      1.21679      115.301 
0.000584357      1.06954      97.5389 
0.00164089    0.0633577     -71.3505 
0.00163708      1.08889      97.4042 
0.000571052     0.331336      115.056 
0.000264305      1.23513      114.899 
0.000958906     0.772985      100.459 
0.00220707      2.97221      118.979 
0.000573004     0.500328      106.288 
0.000398925     0.152624      23.1616 
0.000231724     0.161111      82.7757 
0.00258374      1.90306      123.859 
0.000674323     0.340058      118.035 
0.000295137     0.164706      13.9729 
0.00182003      1.22558      116.157 
0.000290664      3.07572      112.567 
0.00135826     0.519084      105.684 
0.000744346     0.164706      76.0271 
0.000194067      2.97301      109.661 
0.000495427    0.0828082     -75.8378 
3.90258e-05      3.14351      113.628 
0.000794176     0.184432      12.4530 
0.000111081      3.17814      114.138 
0.00159832      3.24501      109.436 
0.000313374      1.61076      114.965 
0.000726301      2.96626      109.292 
0.000398531     0.776764      101.874 
7.17171e-05     0.792179      100.203 
0.000301312      1.60262      114.333 
0.00105135      7.24701      104.383 
0.000225188    0.0896014     -63.6495 
0.000317874      3.22083      114.971 
0.000340108      1.02013      101.326 
0.000192902      3.18283      120.598 
0.000247554     0.795867      101.585 
0.000280438     0.350038      120.964 
6.33146e-05     0.527985      37.2608 
0.000120515     0.220795      174.735 
0.000247434     0.516406      35.5377 
0.000530383      2.63731      112.289 
0.00105255      1.58211      110.721 
3.01125e-05      3.20029      120.413 
0.000286493      3.19008      120.099 
0.000110925     0.219863      180.000 
0.000542008     0.107434     -68.2729 
0.00121512      7.43417      102.427 
0.000349673      10.3115      110.788 
0.000127546     0.664707      111.177 
0.00103002      6.80513      106.035 
0.000148301      1.00028      101.554 
9.83120e-05      3.10914      113.106 
0.000173684      10.1908      109.610 
0.000306143     0.240977      175.177 
0.000633855     0.116465     -58.9729 
0.000321780      1.81078      133.203 
0.000162727     0.387976      124.520 
0.000810403     0.286260     -102.105 
0.000377342      2.95963      108.922 
0.000687048      1.79748      132.750 
0.000325433      10.3187      110.893 
0.000493466      5.99318      115.712 
0.000245206      7.25189      104.532 
0.000157308     0.500058      36.8871 
0.000120394      3.25643      115.467 
0.000365421      10.1840      109.503 
4.49558e-05     0.781185      103.329 
0.000583754      7.27150      104.492 
0.000607143      2.60336      111.633 
4.42519e-05      3.48023      115.532 
0.000920737      3.46196      115.676 
0.000404245      2.23593      68.4807 
0.000118784      1.00437      102.645 
0.000673669      5.70838      117.997 
0.000393276      2.98789      94.2199 
0.000122032     0.800182      103.007 
4.07771e-05      3.08326      112.902 
0.000118667     0.672002      112.728 
0.000101345     0.468857      129.806 
0.000721324      6.32225      110.554 
0.000391451      2.94468      118.825 
0.000212102     0.481580      131.589 
0.000328756      10.3259      110.998 
5.52774e-05     0.828371      109.748 
0.000627241      6.02023      115.802 
7.17065e-05     0.874671      100.529 
0.000372632     0.240124      180.000 
0.000939482      2.24316      68.0171 
0.000151122      2.30856      125.488 
0.000494313      4.95552      113.044 
0.000271146     0.999795      70.1234 
0.000607877      5.20057      118.736 
0.000422137      10.1773      109.396 
0.000276413     0.835434      111.056 
0.000298217      1.93014      124.018 
0.000112875      2.95336      108.564 
7.87824e-05     0.916147      53.8622 
6.40164e-05      2.98945      94.6072 
0.000135136     0.894598      100.292 
9.29110e-05      4.64462      114.685 
0.000124268      3.26486      115.776 
0.000225956      4.26034      112.350 
0.000488965      6.79977      105.877 
0.000422472      2.28092      125.358 
0.000280276      2.66703      98.1848 
0.000103367     0.313099      116.626 
0.000262223      2.97880      108.796 
8.50704e-05      4.49058      117.023 
1.42789e-05     0.961344      102.029 
0.000123612     0.904347      54.8989 
0.000123440      2.97000      94.6374 
0.000258192      1.00686      69.0391 
0.000123043     0.503350      83.1504 
0.000230572      10.3140      111.140 
0.000290484      4.51684      117.131 
4.88821e-05     0.220795      5.26495 
0.000258971      7.43000      102.280 
0.000142072     0.523357      133.490 
0.000118371     0.917561      101.319 
2.47117e-05      4.61808      114.570 
0.000139348      1.59436      109.808 
6.06275e-05      1.34124      69.9429 
7.00696e-05      1.24796      111.629 
0.000160450      1.91929      123.535 
0.000105799      4.25268      112.098 
8.00115e-05     0.748838      124.136 
0.000169522      7.27660      104.647 
0.000102565      2.95451      119.169 
0.000111789      1.23431      116.970 
2.35081e-05      3.25180      109.773 
4.58858e-05      6.32940      110.725 
0.000179696      6.46598      112.360 
1.19426e-05      10.2031      109.465 
0.000110733      4.92925      112.927 
9.94011e-05      10.1964      109.358 
0.000132072      2.65070      98.6783 
4.33160e-05     0.842640      112.294 
3.23865e-05      1.36029      70.2356 
7.53738e-05      2.01415      83.1530 
5.35980e-05      4.27076      112.000 
5.36445e-05      6.01144      115.628 
2.15943e-05      5.18282      118.844 
1.06025e-05      3.27372      116.095 
1.05247e-05      1.26682      111.291 
1.04836e-05     0.291183     -106.006 
1.04788e-05      2.94981      94.6692 
0.00104122      4.16259     -160.343 
0.00124428      10.2208     -179.441 
-0.00167562      9.00344     -124.044 
-0.000697440      8.89650     -3.48168 
-0.000485043      14.0711     -45.0583 
0.00153518      12.9421     -133.936 
-0.00111048      8.26351      140.106 
0.000752158      6.97627     -126.607 
-0.000466756      6.62100     -178.961 
-0.00102929      7.07741      161.210 
-0.000528316      8.28269      124.570 
0.000540735      8.07416      138.213 
0.000679483      12.1371      53.8471 
0.000434747      8.42544      2.04158 
0.000595472      9.14602      15.3429 
0.000504249      4.76726     -62.7896 
0.000669704      6.41340      137.656 
0.000702716      10.3576     -79.9911 
0.000735890      12.8055      138.292 
0.000511118      6.44062      36.1569 
-0.000905599      9.60745     -56.3745 
-0.000649697      12.2343      35.0148 
-0.000733599      8.87628     -3.48962 
-0.000542878      7.16247      42.5119 
-0.000420595      10.9398     -39.5087 
0.000807913      9.66711      54.5988 
-0.000648552      2.31449     -80.0491 
-0.000173793      10.4489     -144.818 
-0.000339981      12.4836      140.263 
0.000566219      2.25082      67.5388 
0.000561304      8.08872      138.306 
0.000638679      8.31221      111.007 
0.000243916      6.16544     -138.809 
0.000246537      11.6879      50.9725 
0.000395595      7.46943     -50.2129 
0.000319963      8.35451     -137.909 
0.000320594      6.98792     -126.736 
-0.000163590      6.62140     -178.786 
0.000400499      2.72976      44.1090 
0.000552695      7.52099      162.673 
-0.000398352      9.26851      99.5630 
-0.000390965      3.23274     -160.106 
-0.000395801      10.4372     -144.909 
8.30264e-05      7.73606      126.484 
0.000545365      10.2005     -179.439 
0.000467901      8.18372     -103.425 
-8.20041e-05      3.25180     -160.227 
-0.000464785      12.0211     -126.203 
0.000233668      7.53813     -13.8163 
-0.000157704      7.14624      92.4072 
-0.000309767      12.4992      140.322 
0.000232004      11.2786      63.3446 
-0.000308473      8.25053      140.214 
-0.000230521      10.9909     -133.747 
0.000228688      6.23477      96.0798 
0.000228480      8.84252      123.186 
0.000227144      6.64329      96.5703 
-0.000226545      9.08909      20.7482 
0.000228056      7.06306      88.2162 
0.000257387      10.5368      117.102 
0.000227400      6.42869      36.0111 
-7.72928e-05      10.9906     -31.6065 
-0.000152060      9.85154     -79.9458 
-0.000225884      12.5258      49.4680 
-0.000151940      9.63146      57.4651 
0.000151588      6.78026     -115.887 
0.000151344      2.00914      46.6193 
0.000149599      4.17494     -160.699 
-0.000151162      4.06466      42.0069 
-0.000150340      10.9548     -39.4438 
-0.000149808      5.81680     -11.5042 
-7.62090e-05      9.16471     -155.504 
-0.000149713      10.1703     -62.7298 
7.55480e-05      3.80524     -39.8880 
0.000148814      6.30199     -98.0288 
-0.000149177      9.39896      137.414 
7.49974e-05      11.7037      51.0350 
-7.48954e-05      7.19986      167.162 
7.45975e-05      12.1360      46.0672 
7.44828e-05      5.86114      144.299 
-7.34718e-05      8.57995      179.865 
0.000156557      5.23929     -50.1072 
-0.000416598      7.10712      96.6268 
-0.000585653      8.02737      74.0929 
-0.000992794      7.10940      96.7830 
0.000688800      12.9861     -130.190 
0.000835316      12.4999      42.4722 
-0.000207085      8.29280     -169.721 
0.000552162      8.21484     -105.388 
0.000139690      10.2437     -21.0532 
0.000262753      8.27604     -11.1459 
0.000137792      3.33470     -57.7404 
-0.000313627      6.33479     -34.1908 
-0.000581499      3.30277     -159.811 
0.000256860      8.55407      28.1837 
-0.000197024      8.51999     -89.7325 
-0.000192573      10.4021      11.3116 
-0.000484844      5.56738     -107.136 
-6.68490e-05      5.10156      106.158 
0.000353865      9.94286     -70.9812 
0.000284882      10.2626     -21.0125 
0.000464073      10.4791      51.6644 
0.000331988      3.31759     -57.5537 
-0.000277624      8.74553     -159.660 
-0.000240288      5.08210      106.222 
-0.000185179      9.25517      137.099 
-0.000506269      1.47505     -167.484 
0.000116355      9.70621     -87.9930 
-0.000120877      9.24951      39.4729 
-0.000176395      8.31274     -169.746 
-0.000336306      11.5580      139.281 
6.20606e-05      3.30676     -57.8499 
-0.000118132      8.02184      74.2320 
-0.000431528      12.4673      124.938 
0.000324692      7.94409      1.87291 
-0.000643654      6.60755     -105.087 
0.000276163      1.82885     -13.2836 
0.000272329      8.18402     -99.1376 
0.000118439      8.20968     -105.257 
0.000162141      5.22903      129.410 
-6.03579e-05      6.78825      134.521 
-0.000286758      5.15125     -111.887 
0.000406477      7.02198     -62.7066 
0.000330134      10.6004     -127.409 
-0.000115100      7.62158      112.525 
0.000114796      12.2490     -43.9401 
0.000295267      9.61887     -61.8376 
-0.000158645      10.0714     -63.0779 
0.000495554      10.4033     -32.4360 
0.000215561      10.8215     -159.557 
0.000112080      8.25616     -11.1731 
5.79459e-05      10.3622      33.1089 
-5.77263e-05      7.97256      73.3850 
-0.000447165      9.19307     -163.180 
-0.000348786      10.4219      11.2897 
-0.000336581      13.6914      132.217 
0.000339889      8.09950      84.3322 
-0.000643724      9.24088      137.017 
0.000127460      8.19786     -103.833 
0.000318968      7.40501      146.009 
0.000109058      10.4840      33.7196 
-0.000141145      5.84842     -23.5818 
0.000353447      8.55875      30.1574 
0.000296351      10.3792      33.0478 
-0.000194559      11.5549      144.441 
0.00107569      10.3640      80.4477 
-0.000149758      10.1742      120.346 
0.000106038      8.18307     -104.004 
-0.000154176      9.12514      91.8850 
0.000341057      2.29115     -135.000 
-0.000723536      10.7670     -30.4700 
0.000104853      10.1916      61.7764 
0.000574704      9.92132      32.1515 
5.34876e-05      11.1238      57.4817 
-0.000423543      11.3985      140.696 
0.000639070      9.94924     -70.8749 
0.000285871      7.32150      129.127 
0.000490616      7.43314      145.967 
0.000306854      11.4195      38.9562 
-0.000260271      6.35156     -34.0881 
5.26443e-05      6.30287     -48.2141 
-0.000148199      8.49476     -70.7568 
-0.000172606      7.88304      55.5415 
-0.000853826      11.6259      134.302 
-0.000188777      10.2841      161.635 
-0.000355344      10.7462     -35.7600 
0.000278811      11.1305      57.6224 
0.000334467      12.5699      41.3236 
0.000625129      9.79934     -107.215 
-0.000149144      8.30412     -156.583 
0.000476891      9.59180     -61.8832 
-0.000185924      8.83190      105.766 
0.000434891      9.93474      124.170 
-5.05101e-05      7.75629     -39.5593 
5.01977e-05      10.4728      33.6274 
-0.000142651      4.02047     -53.6990 
-4.95776e-05      7.60286      112.584 
-9.67969e-05      5.23225     -37.6999 
4.91919e-05      6.27483     -48.2333 
4.89598e-05      8.53622      28.2479 
0.000524399      9.44560     -62.7835 
-9.61499e-05      5.22446      25.3873 
0.000221438      3.00174      66.8447 
0.000172939      9.70552     -88.1125 
0.000244818      10.4638      51.5982 
0.000495257      10.1102     -32.1519 
-9.18013e-05      10.1556     -28.0780 
0.000137314      10.8096     -159.419 
-0.000123500      9.94824      5.65340 
-0.000128502      8.94312      71.4830 
-9.31275e-05      8.79921     -20.9095 
-0.000356213      6.83343      26.0417 
-0.000334763      8.81514      3.38193 
-0.000136546      10.5595     -106.961 
0.000216805      10.6047     -127.259 
-0.000213925      7.43451      169.932 
-4.72298e-05      7.74126     -39.6513 
-0.000210057      8.14925     -165.795 
-0.000134234      7.16925      92.8798 
0.000134984      13.0267     -130.269 
0.000114638      9.28209     -58.5715 
0.000340581      8.17819     -103.867 
-0.000201406      7.34714     -169.335 
-4.64343e-05      8.00789      74.0531 
0.000125766      10.4891      33.5684 
0.000537824      11.1409      57.5377 
9.05234e-05      3.84401     -40.5746 
0.000209318      1.84857     -13.1393 
-0.000104304      5.23414      25.0918 
0.000915354      9.90765      124.140 
0.000335921      8.16402     -99.1602 
0.000124228      4.23946      153.680 
4.59797e-05      9.79881      76.3032 
-0.000447288      9.14464      91.8810 
0.000168943      6.35825     -68.5979 
0.000423341      10.3998     -22.6221 
0.000169769      10.2094      61.8302 
0.000255239      6.26185     -48.3665 
-0.000207692      8.53601     -167.691 
-0.000165475      10.8780      146.397 
-0.000676547      7.16378      42.2830 
-0.000445283      9.94040      119.400 
-0.000311202      7.64034      89.2516 
0.000460929      10.5166      149.486 
8.56958e-05      10.2000     -5.06048 
-4.48061e-05      8.31190     -156.460 
-0.000427377      8.88093     -102.220 
-0.000320538      5.21580      25.1862 
-0.000150882      7.75420     -39.7665 
0.000279644      12.4863      42.4036 
-0.000233224      7.16765     -170.041 
0.000202610      9.78378      76.1641 
-0.000182309      5.21682     -37.8309 
-0.000269735      8.78098     -20.9549 
-0.000387865      5.43080      45.2967 
-0.000155019      7.97001     -144.399 
-0.000149893      10.1640      120.247 
4.32267e-05      7.72515     -149.849 
-4.30464e-05      8.46921     -70.8362 
-0.000199408      10.5536     -106.855 
-0.000196679      6.80850      92.8618 
-0.000234534      7.11182      96.9451 
4.26140e-05      3.82921     -40.7645 
0.000194624      13.0398     -130.337 
-4.22570e-05      10.0637     -64.4514 
4.22686e-05      9.75585      96.1197 
0.000269337      10.7796     -159.244 
4.19707e-05      8.58580      30.2089 
-0.000370729      13.1046      49.3307 
0.000116107      3.29026     -57.6691 
-0.000152654      12.4507      124.992 
-0.000495578      10.3696      58.4873 
0.000267038      9.34742      173.116 
-8.14566e-05      8.67260      157.633 
0.000119846      3.56418     -45.4521 
0.000219552      7.49054     -3.06075 
0.000416433      10.5390     -125.501 
-4.12548e-05      9.14463     -151.809 
4.10613e-05      7.96434      1.86815 
-8.06535e-05      8.09574      18.8850 
0.000500963      9.08286     -38.3848 
0.000318560      9.95893     -86.4317 
7.62901e-05      2.99817     -31.3548 
-0.000151622      10.2363     -65.0374 
0.000241316      10.3962      32.9869 
0.000108723      7.70764     -149.773 
-0.000167910      10.1282     -28.0308 
7.91797e-05      12.0749     -138.759 
-0.000504720      12.6967      38.4779 
-0.000114710      10.0733     -64.6051 
-0.000703370      12.0983      49.3590 
-7.34112e-05      8.29333     -156.404 
-0.000470586      10.2648      161.599 
0.000108880      10.4051     -142.183 
-3.96504e-05      6.33541      135.000 
-7.52087e-05      8.83743      105.893 
0.000147994      5.60064     -45.8685 
-3.94312e-05      5.73637      107.864 
-0.000142136      7.16826      92.7180 
-7.68781e-05      13.8572      42.6014 
7.58785e-05      5.28228      162.592 
7.22128e-05      8.94586      16.8967 
0.000164242      3.66837     -77.4051 
0.000225655      10.3377     -79.9715 
-0.000341726      11.0776      50.2739 
-0.000108261      9.16249     -151.869 
-3.81951e-05      5.10723      106.377 
-0.000248679      8.11492      18.8387 
-0.000319304      4.16374      39.3468 
-0.000280936      10.3692      30.8692 
-0.000175656      6.32163      135.125 
7.49458e-05      9.82934     -72.2290 
-0.000137511      10.2353     -117.968 
0.000237096      9.01355     -109.441 
-0.000281470      7.40025     -155.236 
0.000204981      9.70490     -88.2277 
0.000103251      7.33383      129.245 
-0.000237456      9.26846      137.011 
0.000101687      10.5236      149.632 
-0.000205461      11.6362     -28.7682 
-3.67995e-05      10.6510      107.821 
0.000139802      12.0768     -138.895 
-0.000104353      5.68619      108.880 
-0.000262013      10.7298     -35.8232 
0.000224927      9.27155     -58.6784 
0.000194824      3.54999     -45.6851 
