! Center RA: 12 21 31.69052,  Dec: +28 13 58.50011 (2000.0)
! Established model.
! Flux (Jy) Radius (mas)  Theta (deg)  Major FWHM (mas)  Axial ratio   Phi (deg) T \
! Freq (Hz)     SpecIndex
 0.0356766     0.121759     -80.4216 
0.00683980     0.101837     -78.5245 
0.00506826     0.120062     -90.0000 
0.00383587    0.0828082     -75.8378 
0.00134029    0.0998015     -90.0000 
0.000270006    0.0633577     -71.3505 
0.00264500    0.0562440     -45.0000 
0.00427765    0.0446338     -26.9958 
0.00363326     0.121759     -99.5784 
0.00649640     0.219863      90.0000 
0.00421819    0.0397705      0.00000 
0.00406787     0.141777     -98.2159 
0.000376933    0.0286526      135.000 
0.00119428    0.0720098      146.476 
0.00133767     0.220795      95.2649 
0.00176086    0.0600310      0.00000 
0.00227007     0.140322     -90.0000 
0.00149089    0.0848966      135.000 
0.00164628     0.240977      94.8229 
0.00367709     0.809664      122.895 
0.000561520     0.128090      128.817 
0.00420579     0.159832     -90.0000 
0.000417974     0.141777     -171.784 
0.00150980     0.144435      123.773 
0.00252558    0.0828082     -14.1622 
0.000139515     0.260423      94.4620 
0.00172195     0.145849     -164.176 
0.00118315     0.282706      98.0871 
0.00289821     0.152624      113.162 
0.00219387     0.837701      123.306 
0.000258339     0.134233      116.565 
0.00202109     0.826750      122.132 
0.00199190     0.306099      101.310 
0.00178887      2.09972      107.749 
0.00118747     0.329594      104.100 
0.00218711     0.101837     -11.4755 
0.000700353     0.200353      90.0000 
9.35041e-05     0.164706     -166.027 
0.00104262     0.349279      103.290 
0.000355775     0.152624     -156.838 
0.00172430     0.161111     -82.7757 
0.000837647      2.12523      108.102 
8.77325e-05     0.865779      123.690 
0.00105986     0.181229     -83.5812 
0.000778852     0.956176      127.347 
0.000328375     0.170734     -159.414 
0.000318956     0.392593      104.727 
0.000160092     0.782708      122.471 
7.96319e-05     0.170734      110.586 
0.000788318     0.201375      95.7743 
7.86776e-05     0.871214      121.869 
0.000745683     0.161111      97.2243 
0.000510913    0.0633577      161.350 
0.00222431     0.181229      96.4188 
0.000592052    0.0600310      180.000 
0.00103889      2.15697      107.262 
0.000344721    0.0633577     -161.350 
0.000114110    0.0896014     -153.650 
0.00215871     0.854707      122.560 
0.000330723     0.100252     -143.216 
0.000532503      2.17633      107.104 
0.000212264     0.100252     -126.784 
0.000104514    0.0446338      153.004 
0.000602555     0.116465     -121.027 
0.000502091      2.19570      106.949 
0.000473276    0.0562440      135.000 
0.000100865     0.280627      94.1402 
0.000196631     0.322129      97.0919 
0.000379612      2.21437      106.802 
9.63983e-05     0.345185      100.015 
0.000998444     0.126477     -108.327 
0.000373617     0.365154      99.4623 
0.000359682      2.10735      106.551 
0.000239984     0.145849      105.824 
0.000278285     0.793353      123.660 
0.000179764    0.0720098      123.524 
0.000527822      2.23377      106.651 
0.000527544     0.882079      122.987 
0.000779751     0.407936      101.351 
0.000439646     0.765692      123.285 
8.95223e-05      2.10167      106.021 
8.54026e-05      2.13479      103.001 
0.00135144     0.748838      124.136 
0.000863980     0.899141      122.284 
0.000240950      2.13033      102.470 
0.000318296      2.08794      106.709 
0.000473303      2.25903      106.996 
0.000544414    0.0446338      116.996 
8.16800e-05     0.325253      100.636 
8.11627e-05     0.431906      103.360 
0.00114832     0.450910      102.787 
0.000425972      2.12604      101.937 
0.000288415     0.184432      102.453 
0.000286731      2.09363      107.220 
0.000357223      2.28343      107.321 
0.000947894     0.915694      121.632 
0.000142844    0.0202604      90.0000 
7.08565e-05     0.286260      102.105 
0.000770295     0.291183      106.006 
0.000591249    0.0286526      45.0000 
0.000198904      2.30278      107.171 
0.000812161     0.732771      124.992 
0.000424414      2.12209      101.421 
0.000126696      2.30884      107.652 
0.00131516     0.470689      102.241 
0.000121736     0.164706      103.973 
0.000417649     0.933005      120.980 
0.000296967      2.32744      107.506 
0.000121260    0.0446338      26.9958 
0.000121045     0.759958      125.354 
0.000236583      2.10599      108.274 
0.000119637     0.944023      126.369 
0.000886137     0.297155      109.625 
0.000219990     0.968601      128.299 
0.000111484      2.33361      107.981 
0.000164298      2.11218      108.776 
0.000539700     0.940357      119.286 
0.000459232      2.11818      100.884 
0.000162853     0.164706     -76.0271 
5.50554e-05      2.04236      104.164 
0.000159322      2.35289      107.828 
0.000401772     0.980812      129.194 
0.000252931      2.14465      109.627 
0.000154822    0.0802914      0.00000 
0.000150328      2.01799      103.768 
0.000438020    0.0828082      104.162 
0.000246808      2.35894      108.279 
0.000330898     0.744131      126.223 
0.000999936     0.184432     -77.5470 
0.000143672     0.349279      76.7101 
0.000920050     0.957421      118.714 
0.000186317      2.15128      110.116 
0.000122439     0.101837      101.476 
9.20837e-05      2.09828      100.988 
0.000522521     0.993740      130.099 
0.000749150     0.490508      101.740 
0.000225076      2.38457      108.589 
4.64727e-05      2.01326      103.208 
4.56808e-05     0.161670     -150.222 
0.000219701     0.304558      113.217 
0.000303987     0.134233     -26.5651 
0.000253994     0.354273      73.6379 
8.82673e-05      1.99354      103.341 
0.000478343     0.716267      125.921 
0.000173847      2.15833      110.621 
0.000712132      2.09452      100.444 
0.000278653     0.178866     -153.327 
0.000166943      2.39086      109.032 
4.21795e-05      1.96994      102.898 
0.000419685     0.323277      111.801 
0.000247420      2.11444      100.345 
4.17365e-05      2.16528      111.105 
4.13756e-05      1.94589      102.471 
0.000160885      2.19150      111.408 
0.000199212     0.126477     -18.3275 
0.000234254      1.92180      102.012 
0.000222154     0.984957      119.182 
0.000156948      2.41594      109.335 
0.000440860      1.00691      130.981 
0.000115230     0.341468      69.4145 
0.000260177      2.19898      111.899 
6.68869e-05     0.161670     -29.7779 
0.000184126      2.42273      109.788 
0.000543382     0.152624     -23.1616 
0.000144152     0.360505      70.5467 
0.000178643      1.90272      102.134 
0.000603845     0.509625      101.293 
0.000726322     0.204262     -78.7726 
0.000235963      2.20633      112.370 
0.000571443     0.197181     -155.971 
0.000137363     0.699961      126.894 
0.000203197      2.42940      110.220 
0.000470002     0.349107      66.3001 
0.000434042      1.89856      101.536 
3.39655e-05      2.23211      112.660 
0.000955733     0.331336      115.056 
0.000669847      1.03443      131.088 
0.00109871     0.672210      126.512 
6.42592e-05      2.26632      113.390 
9.55161e-05      1.01218      119.587 
0.000210037     0.912809      118.798 
0.000153048      2.43648      110.668 
0.000183645      3.64849      127.874 
0.000119185      2.18020      112.098 
9.09628e-05      2.42551      111.278 
9.01193e-05      2.29298      113.654 
0.000146935     0.145849     -15.8239 
3.04983e-05      2.17265      111.603 
0.000220189      1.02920      119.051 
0.000317095      2.51368      105.692 
0.000270620     0.994244      74.8625 
0.000237564      1.20033      66.4157 
0.000163075      3.64505      128.321 
8.23815e-05      2.31900      113.919 
0.000331684     0.178866     -26.6725 
2.80978e-05      2.44370      111.112 
0.000563221     0.357396      63.4349 
5.55406e-05      2.15383      111.801 
0.000215310      2.09107      99.9187 
0.000966496      1.87872      101.660 
0.000990911     0.656037      127.565 
0.000157084      2.43266      111.706 
0.000284990     0.885686      118.324 
5.35230e-05      2.16144      112.300 
5.24857e-05     0.107434      111.727 
0.000222869     0.529508      100.864 
0.000533954      3.84688      135.000 
7.54655e-05     0.141777     -8.21587 
7.61539e-05      2.16892      112.777 
5.06881e-05      2.30118      114.116 
0.000256587     0.215843     -158.162 
4.97612e-05      3.63252      128.070 
0.000114345      2.63764      130.697 
0.000162964      1.05677      119.477 
0.000285189      4.88115      123.297 
7.14611e-05      1.01381      75.1615 
0.000452562      1.04786      131.923 
4.81443e-05      2.15094      112.978 
0.000157952      2.45080      111.538 
0.000543214      2.07185      100.012 
0.000110745      3.62976      128.512 
0.000110989      2.32698      114.358 
7.04154e-05      3.84087      125.674 
0.000158276      3.83258      135.214 
6.46350e-05      3.65999      126.555 
4.53892e-05     0.116465      121.027 
9.08680e-05     0.989328      75.9532 
5.48836e-05     0.322315      119.728 
0.000284008     0.223431     -79.7468 
6.58497e-05     0.140322      0.00000 
0.000483715      2.53319      105.568 
0.000398944      3.12839      120.342 
2.31488e-05      2.15893      113.473 
0.000265221     0.188432     -31.9812 
0.000173444      3.82909      125.428 
4.44978e-05      2.30922      114.558 
6.63929e-05      3.64374      126.745 
0.000559257      2.62447      130.361 
2.26390e-05      2.16708      113.965 
0.000171689      1.22674      65.9592 
0.000279527      4.86486      123.423 
4.40163e-05      2.13573      111.996 
0.000104350      3.06450      125.975 
0.000296888      2.14402      126.661 
0.000201762      1.00899      76.2325 
0.000150827      3.04813      126.198 
2.13405e-05     0.737659      122.833 
2.13086e-05      2.17508      114.434 
0.000211441      1.04695      118.512 
0.000466520     0.209153     -163.320 
0.000389997     0.366905      60.6039 
6.14233e-05      2.12822      111.490 
0.000116431      2.45831      111.977 
0.000262438      3.84561      125.253 
2.05907e-05     0.761721      119.899 
7.77350e-05     0.141141      135.000 
5.81570e-05     0.778695      119.183 
3.89413e-05      2.31772      115.014 
0.000159418      3.64841      126.309 
3.71584e-05      2.18354      114.918 
7.44919e-05      3.61718      128.261 
3.89254e-05      2.36403      119.388 
1.92605e-05      2.12115      111.000 
5.61056e-05      4.82079      124.351 
0.000665570     0.421988      31.4006 
0.000211220     0.769370      117.915 
0.000249969      1.75080      103.887 
0.000243297      2.39164      119.573 
0.000121555      2.09501      110.681 
0.000108411      4.62155      122.454 
0.000371690      3.11092      120.530 
0.000671249      1.07647      132.005 
0.000393383     0.984607      77.0970 
0.000105236     0.156126      140.265 
1.81678e-05      2.10225      111.198 
0.000258290      3.07060      133.158 
1.78834e-05      4.59884      123.830 
9.12690e-05      2.43648      106.202 
1.75366e-05      4.43312      122.474 
4.52299e-05     0.533698      103.001 
0.000252620      4.41604      122.615 
1.73803e-05      2.34545      114.154 
0.000410785      2.12780      126.987 
8.83724e-05      3.20663      113.530 
6.75492e-05      4.81515      124.678 
1.72971e-05      1.00437      77.3551 
0.000206584      3.83439      125.015 
0.000371962     0.227911     -74.7283 
0.000128355      2.22624      98.7829 
3.34362e-05      2.47711      111.801 
0.000186240     0.199903     -36.9129 
0.000153238      4.62785      122.108 
0.000149875      3.81822      135.000 
9.41975e-05      1.05578      117.057 
8.66182e-05      2.35382      114.604 
0.000152486      2.18826      120.795 
1.65172e-05      3.61393      128.712 
0.000837746      4.23897      124.813 
0.000233144     0.903572      117.714 
0.000158708      3.05265      125.667 
0.000137762      4.82671      124.876 
0.000415668      3.19595      113.995 
1.61792e-05     0.184676      139.449 
1.60867e-05      4.60973      124.032 
0.000104925      2.53870      106.008 
7.69437e-05     0.172194      144.578 
8.57683e-05      3.60129      128.460 
0.000114897      2.07607      110.878 
7.53642e-05      3.66475      126.121 
0.000592252      2.40133      119.978 
0.000294097      1.93492      119.737 
0.000298076     0.876255      117.158 
4.44490e-05      2.49593      111.629 
7.28967e-05      1.41049      108.165 
9.40564e-05      1.25286      65.4765 
4.13474e-05      4.62110      124.240 
8.24186e-05      1.74605      103.242 
1.46331e-05     0.212689      138.719 
0.000199967      3.81781      125.189 
6.73317e-05      2.37225      114.400 
1.44840e-05      2.24552      98.7069 
0.000125477      1.42904      107.921 
0.000132615     0.199903      143.087 
0.000238146      2.24255      98.1952 
0.000120613      4.83832      125.073 
0.000300468      2.63402      113.256 
0.000202510      4.39962      122.752 
0.000341364      3.12088      120.839 
0.000150349      3.29155      110.637 
9.01748e-05     0.384685      62.0853 
0.000104996      1.31730      120.085 
0.000100445     0.349107      113.700 
0.000268126      3.65285      125.865 
0.000274591      1.86992      65.3581 
8.54341e-05      1.05578      62.9432 
0.000181195     0.980435      78.2085 
2.57429e-05      4.88745      122.975 
4.79249e-05      2.39003      114.207 
5.05412e-05      2.05785      111.072 
0.000121046      1.63006      96.3431 
3.62684e-05      1.04672      116.069 
0.000196793      1.88495      94.2693 
1.25389e-05      4.63253      124.447 
4.85103e-05      2.06522      111.597 
0.000172477      4.89810      123.167 
5.64522e-05      3.58873      128.207 
1.22846e-05      2.43111      105.761 
9.24709e-05      4.83364      125.395 
3.44219e-05      4.61751      121.903 
8.38595e-05     0.161111      7.22432 
0.000248157      1.32719      120.814 
0.000631555      2.88727      102.396 
7.88290e-05     0.204262     -168.773 
0.000267374      3.09872      133.165 
0.000164887      2.55199      105.450 
0.000163499      3.80617      124.940 
7.30684e-05      4.61584      124.589 
0.000318217      3.10707      106.457 
0.000155036     0.216445      146.310 
0.000263712      2.41234      105.887 
0.000116760      2.04640      111.805 
2.23343e-05     0.553458      102.529 
1.15783e-05     0.228306      142.075 
1.15017e-05      2.03896      111.277 
0.000336414      4.07128      120.725 
1.13879e-05      4.84956      125.261 
0.000333135      1.62795      95.6344 
0.000123957      1.17614      125.312 
0.000116436      1.06480      62.0083 
2.16971e-05      2.26555      98.6293 
0.000195754      2.19831      121.232 
0.000305560      2.64209      113.660 
0.000117345     0.961344      77.9708 
0.000141899      3.12651      106.352 
1.07763e-05      3.08398      133.423 
0.000229611      2.26260      98.1220 
0.000160009     0.722868      85.2364 
0.000152251      4.84541      125.590 
0.000375235     0.956176      142.653 
7.25212e-05     0.227911     -164.728 
5.05469e-05      1.24745      102.013 
0.000134801      3.36824      105.851 
9.50272e-05      4.63473      121.770 
1.02027e-05      1.03798      115.064 
0.000282640      1.91735      120.037 
0.000392309     0.432889      33.6901 
3.74065e-05      3.57669      127.961 
0.000127414      2.60964      130.639 
0.000121014      1.64811      95.5652 
9.06463e-05     0.205897      151.006 
8.73468e-05      4.42659      122.828 
9.66018e-06      1.04771      113.646 
5.45938e-05      4.25500      124.663 
0.000102950      1.26654      101.829 
5.20112e-05      1.27132      65.8555 
0.000460442      2.02760      112.018 
0.000293499     0.234065     -69.9384 
7.85762e-05      3.19275      116.402 
8.95226e-06      3.04088      125.357 
7.98063e-05      3.09413      120.714 
0.000191309     0.721469      86.8400 
0.000211053     0.223431     -169.747 
9.68001e-05      1.33487      119.649 
4.59591e-05      2.82341      124.036 
0.000220082     0.612198      101.310 
2.46769e-05      1.03975      112.623 
6.97144e-05     0.184432      12.4530 
7.88281e-05     0.957327      79.1569 
2.71721e-05      2.59697      130.312 
1.67220e-05      3.56427      127.705 
9.88301e-05      1.07446      61.0542 
0.000107797     0.212689     -41.2810 
0.000141486      4.85723      125.785 
0.000154307     0.233573      149.068 
0.000150921      3.20181      116.727 
0.000180593      1.86408      93.6929 
0.000151712     0.340058      118.035 
1.52141e-05      4.62694      124.788 
1.58015e-05      3.56847      127.258 
0.000134610      3.79503      124.699 
0.000122486      2.28558      98.5531 
6.36312e-05      4.41021      122.965 
0.000136820      1.87845      64.7964 
8.09049e-05      1.08963      132.767 
0.000101195      3.38157      105.430 
6.90123e-05      3.55624      126.998 
3.51067e-05      1.03212      111.585 
2.16304e-05      3.04066      135.800 
0.000100375      1.26268      100.963 
0.000209688      1.34463      120.372 
2.13837e-05      3.02709      136.065 
1.42185e-05     0.572519      102.105 
7.54201e-05      1.09162      76.2408 
0.000113255      2.28266      98.0502 
8.47898e-05      2.98768      121.023 
7.73962e-05      4.62409      121.557 
4.92888e-05     0.937436      78.9239 
3.03065e-05     0.412159      60.9150 
0.000132221     0.223834      153.521 
0.000177141      1.18797      126.110 
0.000172202      3.04171      136.329 
6.17552e-05      1.08441      60.1174 
4.69049e-05      4.91507      123.037 
6.33977e-05      3.69208      136.095 
5.78691e-05     0.204262      11.2274 
2.93714e-05      4.61031      124.932 
1.89147e-05      2.36232      115.051 
8.10477e-05      3.64101      125.606 
8.17832e-05      2.14340      67.5020 
9.07280e-05      4.86866      125.971 
3.00251e-05     0.582967      149.011 
3.94538e-05      2.81212      123.694 
4.46097e-05      1.02511      110.571 
4.16116e-05      3.55237      127.456 
6.18008e-06      4.39322      123.109 
9.21679e-05      1.10459      132.054 
0.000111096      2.16144      67.6999 
4.93549e-05      2.61188      130.035 
0.000185296      4.17215      126.818 
5.94807e-06      1.48627      107.209 
1.16801e-05      4.38741      123.475 
0.000138594      1.28258      100.791 
7.09263e-05      3.39599      105.022 
4.66514e-05      2.38069      114.845 
5.94596e-05      1.90306      123.859 
0.000122448     0.894329      116.565 
6.64339e-05     0.572799      150.749 
2.70710e-05      1.09426      59.2317 
2.17327e-05      1.62042      114.049 
3.70650e-05      2.66066      113.485 
1.11054e-05      3.54409      126.736 
0.000148313      2.30488      98.4810 
2.10575e-05      2.11225      127.305 
2.61639e-05      2.38734      105.552 
1.57982e-05      3.12681      133.191 
3.64608e-05      3.54008      127.195 
2.08359e-05      1.09662      75.2125 
1.55395e-05      4.36039      124.341 
2.87923e-05     0.933756      80.1441 
7.00010e-05      1.62846      114.676 
1.01889e-05     0.592344      101.694 
1.51851e-05      1.10476      58.3288 
7.93207e-05     0.913801      79.9266 
1.51424e-05      2.86748      102.483 
4.97144e-06      3.41040      104.605 
4.96019e-06     0.438758      59.9270 
0.000354478      5.10549      134.845 
0.000334915      6.63950      114.940 
0.000211766      3.65991      139.432 
1.19581e-05      4.36823      114.337 
0.000100620      4.28575      115.125 
0.000164991      4.38670      114.228 
0.000312194      5.09122      134.684 
2.18501e-05      6.62113      115.014 
0.000141695      4.55718      112.173 
8.25740e-05     0.820423      88.5849 
0.000325913      6.62973      115.173 
0.000149131      1.11549      75.4683 
4.94614e-05      2.39841      114.649 
6.70355e-05      2.52156      111.893 
3.52590e-05      1.01158      108.422 
7.81231e-05     0.360755      3.21949 
9.57891e-06     0.740950      86.9232 
4.47885e-05      5.09167      135.000 
0.000154180     0.563176      152.547 
7.21768e-05     0.216445     -33.6901 
0.000110977      1.29890      99.7453 
4.11746e-05      1.30249      100.624 
