! Center RA: 12 21 31.69052,  Dec: +28 13 58.50011 (2000.0)
! Established model.
! Flux (Jy) Radius (mas)  Theta (deg)  Major FWHM (mas)  Axial ratio   Phi (deg) T \
! Freq (Hz)     SpecIndex
  0.117418     0.322315     -119.728 
 0.0569693     0.313099     -116.626 
0.00807287     0.295127     -118.390 
 0.0136200     0.260826     -122.547 
0.00362541     0.271820     -126.016 
0.00272440     0.244605     -125.006 
0.000438831     0.288454     -123.649 
0.000435309     0.145849     -164.176 
0.000213684     0.304887     -121.617 
0.000420890     0.140322      180.000 
0.000407813     0.141777      171.784 
0.000404194     0.340058     -118.035 
0.000199351     0.145849      164.176 
0.000773993     0.357396     -116.565 
0.000390252     0.170734      159.414 
0.000749029     0.178866      153.327 
0.000910558     0.375627     -115.183 
0.000710777     0.188432      148.019 
0.00101929     0.394056     -113.929 
0.000342190     0.199903      143.087 
0.000820557     0.228306      142.075 
0.00169350     0.411965     -112.829 
0.000811051     0.240790      138.411 
0.00104287     0.269397      138.048 
0.000582549     0.310934      135.000 
0.00401756     0.430710     -111.783 
0.000425950     0.588377      125.291 
0.000274551     0.604406      124.223 
0.000655933     0.649334      123.690 
0.000724746     0.212689      138.719 
0.000735283     0.665655      122.759 
0.00121854     0.682782      121.839 
0.00155962     0.184676      139.449 
0.00107352     0.700075      120.964 
0.000766040     0.438632     -114.241 
0.00104159     0.156126      140.265 
0.00118692     0.716875      120.161 
0.000942580     0.493986     -111.381 
0.000237482     0.141141      135.000 
0.000158724     0.501727     -113.536 
0.000727328     0.432889     -123.690 
0.000237496     0.404832     -122.895 
7.65072e-05     0.395830      135.000 
0.000224850     0.410407      133.000 
0.000981190     0.421988     -121.401 
0.000146135     0.438496      133.197 
0.000213798     0.453478      131.445 
0.000139036     0.481580      131.589 
0.000465718     0.496341      130.094 
0.000748261     0.449253     -122.310 
0.000252211     0.540492      128.970 
0.000122415     0.126477      161.673 
0.000182139     0.600310      126.870 
0.000286864     0.101837      168.524 
0.000118133     0.616029      125.781 
0.000115757     0.660356      125.099 
0.000378050     0.466502     -120.980 
0.000113387     0.676411      124.148 
0.000110699     0.476838     -122.990 
0.000643747      3.20233      115.929 
0.000166132     0.693272      123.208 
0.000215286    0.0802914      180.000 
0.000214531     0.710310      122.313 
0.000619997    0.0828082      165.838 
0.000257654     0.726874      121.491 
0.000522578     0.493955     -121.710 
0.00101753      3.21091      116.242 
0.000246501     0.744225      120.676 
0.000137898    0.0600310      180.000 
0.000372114     0.761721      119.899 
0.000347636     0.778695      119.183 
0.000634115     0.521249     -122.478 
0.000126343    0.0896014      153.650 
4.18696e-05      3.61543      118.405 
0.000123942     0.796445      118.473 
0.000122056    0.0633577      161.350 
4.16392e-05      3.18412      116.088 
4.13093e-05      3.64223      118.540 
8.19570e-05      3.15771      115.914 
4.07552e-05     0.424483      135.000 
4.07053e-05      3.68715      118.505 
8.05183e-05     0.814312      117.793 
4.03629e-05      3.13950      116.075 
4.02241e-05      3.69687      118.781 
3.99547e-05      3.13064      115.742 
0.000117986      3.71398      118.636 
0.000319561     0.452074      135.000 
0.000155830     0.831621      117.166 
7.87709e-05      3.11241      115.904 
0.000328462     0.410407      137.000 
0.000152539    0.0397705      180.000 
0.000227691      3.08635      115.736 
0.000114234      3.74148      118.760 
7.55324e-05     0.849697      116.542 
0.000146929      3.76863      118.872 
0.000131260     0.867194      115.966 
0.000180727      3.05931      115.559 
7.18419e-05     0.877265      114.241 
7.17710e-05    0.0286526     -135.000 
0.000310386      3.79551      118.997 
0.000335400     0.549255     -123.126 
0.000266630      3.04105      115.724 
0.000104167     0.895778      113.709 
3.47347e-05    0.0202604     -90.0000 
0.000100655     0.913675      113.217 
9.99380e-05    0.0446338     -63.0042 
0.000439714      3.01469      115.538 
0.000191759     0.438496      136.803 
0.000223887      3.82306      119.116 
9.71658e-05     0.932329      112.726 
6.30276e-05    0.0562440     -45.0000 
6.28648e-05     0.951048      112.255 
0.000153158     0.538451     -121.320 
8.75706e-05     0.958607      113.334 
0.000208103      3.81324      118.850 
6.07099e-05     0.976552      112.881 
8.92276e-05    0.0848966     -45.0000 
5.91371e-05     0.995250      112.427 
2.95800e-05      1.29695      109.819 
0.000460885     0.566331     -122.005 
0.000359130      3.84077      118.969 
0.000387813      2.99642      115.705 
0.000113986      1.32223      110.358 
0.000475876     0.480727      135.000 
8.28634e-05     0.100252     -36.7841 
5.52095e-05      1.34124      110.057 
5.42068e-05     0.940038      113.823 
5.36227e-05      1.34833      110.866 
0.000102213     0.128090     -38.8171 
7.72821e-05     0.921540      114.332 
0.000128129      1.36728      110.563 
2.58504e-05      3.86730      119.082 
0.000424939      3.36347      117.634 
0.000100768      3.95900      119.675 
7.47881e-05      2.96972      115.536 
5.01445e-05      2.64782      117.916 
2.48936e-05      3.43510      117.757 
7.31385e-05     0.903799      114.842 
2.47382e-05     0.576909     -123.649 
0.000220387      3.33680      117.481 
0.000119819      1.39244      111.033 
0.000164243      2.63059      118.115 
7.26691e-05      3.98664      119.784 
7.13719e-05      3.30983      117.344 
0.000205530     0.144435     -33.7726 
0.000375620     0.593248     -122.605 
0.000656357     0.509380      135.000 
2.40628e-05      3.40876      117.620 
0.000138513      4.01392      119.882 
0.000112869     0.885454      115.392 
2.32141e-05      2.91643      115.154 
9.06654e-05      1.41137      110.738 
0.000191705      3.39082      117.779 
0.000191432      4.04094      119.993 
8.42535e-05      2.96104      115.182 
0.000107507      2.61274      118.324 
4.35847e-05      1.41867      111.503 
0.000124543      1.43754      111.207 
0.000158244     0.858831      114.796 
0.000196106     0.134233     -26.5651 
0.000211860      4.06862      120.097 
0.000137898      2.59492      118.536 
0.000116716     0.604406     -124.223 
3.93898e-05      1.44500      111.956 
1.96743e-05      1.45575      110.929 
9.07756e-05      2.95248      114.826 
0.000130029      1.46311      111.670 
0.000221106     0.841160      115.353 
0.000361984     0.621263     -123.172 
0.000141290      2.57780      118.744 
0.000172455      4.09594      120.191 
0.000181132     0.152624     -23.1616 
5.24635e-05      1.47043      112.377 
1.73410e-05      1.51196      127.478 
1.70304e-05      1.50907      128.540 
8.18712e-05      1.48196      111.381 
0.000222739     0.495261      136.658 
0.000168857      4.12300      120.298 
9.56232e-05      1.52130      129.114 
6.40658e-05      2.89975      114.443 
1.64254e-05      2.56848      118.362 
3.20839e-05      4.08616      119.955 
0.000107660      2.56005      118.962 
0.000406261      3.34619      117.789 
0.000103491      1.50084      111.099 
0.000127013     0.832685      114.094 
8.61050e-05      2.94434      114.481 
7.23676e-05      1.53416      129.702 
7.01384e-05      3.75724      117.926 
0.000207421     0.632576     -124.708 
1.48733e-05      3.37291      117.939 
0.000180360     0.145849     -15.8239 
1.43586e-05      2.55066      118.578 
9.66113e-05      4.15072      120.399 
0.000151748     0.814232      114.676 
6.84701e-05      2.54235      119.183 
9.16903e-05      1.51906      110.834 
9.08575e-05      1.54718      130.279 
1.36814e-05      3.43410      130.267 
0.000150338      4.17807      120.489 
2.61047e-05      3.44901      130.058 
6.31488e-05      2.93600      114.122 
8.83287e-05     0.523357      136.510 
6.32275e-05      2.53289      118.797 
9.85061e-05      3.77516      117.782 
7.00305e-05      3.46209      130.314 
0.000458543     0.649334     -123.690 
1.21827e-05      1.53101      109.856 
7.94324e-05      1.54459      131.317 
0.000195326     0.824622      112.808 
3.55507e-05      2.52533      119.399 
0.000130674      1.53801      110.566 
0.000207233     0.509625      138.163 
7.78584e-05      2.92808      113.773 
2.30909e-05      4.19490      120.354 
3.28335e-05      3.80254      117.910 
6.62753e-05      2.51581      119.011 
4.39951e-05     0.121759     -9.57842 
7.67107e-05      4.20517      120.592 
2.09051e-05      3.47523      130.569 
7.08240e-05      4.22263      120.452 
6.94422e-05      1.55804      131.876 
4.07740e-05      2.50605      118.606 
0.000103670     0.141777     -8.21587 
0.000142802      2.91998      113.409 
1.00189e-05      3.49064      130.353 
7.23416e-05      3.50331      130.596 
2.85670e-05      2.48828      118.830 
7.35771e-05      4.24972      120.554 
0.000142746      1.55700      110.304 
9.62621e-06      2.49811      119.237 
6.20140e-05      4.30452      127.827 
4.35985e-05      3.79309      117.640 
6.08943e-05      1.55675      132.929 
1.80280e-05      2.47893      118.435 
0.000159436     0.817257      111.547 
0.000119362      3.31883      117.643 
2.58172e-05     0.120062      0.00000 
0.000141518     0.524894      139.639 
5.02052e-05      3.81979      117.773 
1.73006e-05      2.46935      118.021 
2.53076e-05      4.27709      120.641 
1.66547e-05      2.45989      117.605 
3.19300e-05      4.29453      120.504 
0.000129347     0.638318     -122.177 
4.63916e-05      3.51653      130.847 
1.60566e-05      2.45092      117.201 
8.10207e-06      1.54252      133.423 
0.000113700     0.140322      0.00000 
5.27982e-05      4.31697      128.039 
3.08761e-05      1.55599      133.945 
1.54617e-05      2.44172      116.778 
7.69149e-05      3.81039      117.504 
7.66302e-06      4.32163      120.604 
0.000109907      2.93858      113.252 
3.62112e-05      4.33909      120.468 
2.21510e-05      2.43266      116.352 
7.45368e-06      4.31136      120.372 
2.17465e-05      1.54147      134.467 
7.16635e-06      2.42406      115.938 
5.35121e-05      3.54454      130.888 
1.39982e-05      2.73989      127.287 
0.000223605      1.57531      110.058 
4.66111e-05      1.54147      135.533 
1.38400e-05      2.39768      115.707 
5.18521e-05      3.29184      117.505 
6.90455e-06      4.36645      120.553 
6.90800e-06     0.810035      110.214 
0.000105690     0.540492      141.030 
3.78069e-05      3.83772      117.632 
8.77100e-05      4.30104      128.206 
3.30382e-05      4.38326      120.424 
6.85666e-05     0.821746      108.418 
1.33946e-05      2.38896      115.269 
6.71298e-06     0.828371      109.748 
6.56138e-06      2.75221      127.623 
2.54485e-05      2.38069      114.845 
3.07316e-05      4.41099      120.517 
6.66396e-05      2.80512      128.341 
6.24565e-06      1.52787      136.055 
2.46061e-05     0.665655     -122.759 
1.81192e-05      1.54252      136.577 
2.37974e-05      2.37225      114.400 
0.000108201      3.49753      103.562 
0.000110204      3.55734      131.126 
4.43441e-05     0.141777      8.21587 
5.73754e-05     0.676411     -124.148 
2.88809e-05      4.42846      120.384 
1.15775e-05      3.82837      117.364 
2.83390e-05      1.52866      137.128 
3.82865e-05      2.34545      114.154 
3.17179e-05     0.815792      107.118 
8.70553e-05     0.555796      142.295 
6.04690e-05      3.85569      117.493 
3.72711e-05      4.45554      120.482 
5.19487e-05     0.687989     -125.545 
3.63486e-05      1.52944      138.182 
0.000163030      2.95720      113.097 
0.000162396      3.49283      103.239 
2.97724e-05      2.33754      113.718 
5.22113e-05      4.47302      120.351 
1.98594e-05      3.26519      117.348 
6.10965e-05      4.28853      127.993 
2.78586e-05     0.145849      15.8239 
9.76459e-06      1.51650      138.731 
8.85860e-05      3.58593      131.157 
4.25406e-05     0.699961     -126.894 
1.44021e-05     0.810060      105.749 
4.03855e-05      2.81727      128.653 
1.87518e-05      1.53178      139.231 
4.85998e-05      2.31086      113.460 
9.15555e-05      1.58211      110.721 
8.77895e-05     0.571959      143.536 
8.44156e-05     0.824622      104.062 
4.28159e-05      1.51863      139.810 
2.63679e-05     0.711845     -128.150 
5.18007e-05      3.88236      117.625 
9.19256e-05     0.804984      104.412 
4.93508e-05      4.50036      120.435 
2.02768e-05     0.164706      13.9729 
3.28363e-05     0.724535     -129.410 
5.59728e-05      2.30287      112.998 
5.70837e-05      2.85788      129.043 
0.000158669      3.48825      102.915 
6.17161e-05      1.52130      140.886 
0.000180855      3.59929      131.399 
1.54974e-05     0.737564     -130.627 
2.90379e-05      1.90544      154.505 
7.06023e-05      4.51720      120.309 
1.12087e-05     0.749880     -133.905 
5.37833e-05      4.27318      128.154 
1.42347e-05     0.170734      20.5855 
6.42505e-05     0.588377      144.709 
2.81791e-05     0.764069     -135.000 
5.36003e-05      3.90032      117.487 
6.21374e-05      1.91520      155.313 
0.000114776      2.28493      113.189 
1.94915e-05     0.777987     -136.016 
2.16318e-05     0.189835      18.4349 
1.58716e-05      1.17680     -162.177 
1.81114e-05      1.19539     -162.464 
2.30277e-05     0.750414     -131.757 
1.96639e-05      2.87021      129.345 
3.78479e-05     0.604406      145.777 
1.43179e-05      4.50738      120.095 
1.33177e-05     0.480675     -92.4157 
1.72209e-05      1.21473     -162.752 
9.38538e-05      3.48394      102.602 
5.74479e-06     0.209153      16.6796 
2.84725e-06      1.52438      141.917 
5.57306e-06     0.215843      21.8384 
6.71817e-05      4.53470      120.180 
1.37267e-05      1.23409     -163.030 
3.57596e-05      1.50907      141.460 
6.80927e-05     0.486965      19.1609 
2.09210e-05      1.25276     -163.291 
2.01221e-05     0.764056     -132.891 
2.37753e-05      4.28572      128.367 
2.52855e-05      2.83735      111.503 
1.24827e-05      1.27218     -163.553 
1.19199e-05      2.89872      129.401 
2.46332e-05      3.91830      117.350 
1.43813e-05      1.29091     -163.798 
1.57596e-05      1.93294      155.554 
2.44062e-05     0.621263      146.828 
2.00397e-05     0.777987     -133.984 
9.24020e-06      1.31037     -164.046 
4.58739e-05      3.45978      102.348 
6.76781e-06      1.32987     -164.286 
6.56485e-06     0.480248     -90.0000 
8.80114e-06      1.34866     -164.510 
8.58206e-06      2.91162      129.709 
1.89941e-05      1.55243     -165.070 
1.26390e-05      3.58412      131.614 
8.40091e-06     0.493986      21.3812 
4.15115e-06     0.791661     -135.000 
0.000285598      13.5649      46.1341 
0.000387357      9.99436     -11.8938 
-0.000283844      11.7386      39.3319 
-0.000189397      6.19950      137.355 
0.000241513      9.25730      79.4206 
-0.000125241      12.8096     -50.8915 
-0.000291563      10.8620     -34.4190 
-0.000206594      6.64607     -87.5863 
0.000202391      6.86546      164.630 
-0.000148865      9.93336      49.7339 
-0.000195144      9.76238      86.1215 
0.000355999      9.12328      153.715 
-0.000166438      4.01490      68.6719 
-0.000257962      12.7944     -50.8364 
-0.000155780      11.3837     -29.5814 
-7.99249e-05      2.16046      179.463 
0.000238636      9.87308     -18.5465 
8.42488e-05      5.71682     -142.252 
-0.000157073      8.15886      108.878 
-0.000134093      10.7521     -67.5838 
-2.84149e-05      2.16073      178.945 
-0.000181711      6.21442      137.481 
-0.000358098      9.54648      154.829 
-0.000129748      10.3489      26.2696 
-0.000103524      11.7258      39.2554 
0.000102916      6.41340      132.344 
-7.80172e-05      4.51985     -172.368 
5.31296e-05      9.98376     -138.004 
0.000225388      2.29418     -165.355 
-0.000268455      9.94883      49.8093 
-5.40932e-05      9.35695     -121.004 
5.25114e-05      12.5335     -48.0383 
2.67488e-05      9.28095      79.3206 
5.16231e-05      6.65720      155.131 
-0.000220525      9.05296      76.9751 
-7.21475e-05      11.2831     -56.0563 
0.000145172      5.70081     -142.127 
2.64639e-05      9.05427      21.9178 
-7.74077e-05      11.3740     -29.4959 
-0.000100242      9.82223     -62.5990 
0.000100549      11.8321     -128.343 
2.63080e-05      9.65014      32.0427 
-4.85454e-05      9.00125      93.9485 
0.000100044      10.7454     -18.3325 
-0.000125394      5.15672      35.8527 
0.000217787      9.26105      79.2974 
2.59481e-05      9.19257      135.529 
5.07726e-05      9.06185      22.0366 
-0.000216712      4.14144      26.6904 
-0.000168898      10.2979     -17.5187 
4.90267e-05      1.37596      32.5287 
-4.91126e-05      6.66474     -87.7674 
-0.000144589      11.4224      54.3354 
-7.26446e-05      8.02262      43.2831 
0.000143085      10.1760     -111.927 
2.53942e-05      9.17456     -33.6225 
4.94693e-05      7.91198     -106.145 
2.52834e-05      7.37918     -15.2403 
-9.58125e-05      8.28719     -39.2197 
-7.29900e-05      5.08187     -67.0658 
7.34039e-05      5.51044     -70.0549 
4.82694e-05      6.97330      7.08372 
0.000166249      12.5335     -136.422 
-0.000117858      2.32204      82.0872 
9.38555e-05      8.38327      22.5871 
0.000163696      9.67433      51.9683 
0.000140674      4.85943      7.32804 
4.70318e-05      3.02357     -87.3400 
7.13516e-05      8.47680     -107.155 
4.75164e-05      7.36573     -15.4323 
9.40169e-05      9.16335     -33.5170 
7.04177e-05      9.63940      31.9406 
4.73299e-05      2.71938     -18.4349 
-2.40403e-05      9.03322      76.9462 
6.95338e-05      9.11432      153.829 
4.70269e-05      9.99855     -12.0074 
6.89475e-05      7.45878      42.7169 
-6.88527e-05      5.14488      35.6698 
4.57236e-05      9.88516     -18.3992 
-4.61568e-05      7.27289      126.052 
6.83254e-05      11.8196     -128.266 
4.58353e-05      5.50381     -70.2458 
2.31348e-05      3.87997      31.7258 
-4.52775e-05      1.00745     -83.1555 
4.53457e-05      9.99551      155.282 
-4.51681e-05      4.53993     -172.402 
2.26417e-05      8.47085     -107.024 
-4.48816e-05      9.55479      154.723 
2.25038e-05      5.46742     -148.463 
2.24363e-05      9.20678      135.439 
2.23977e-05      10.7325     -18.4692 
2.23718e-05      12.6449      132.116 
-2.22507e-05      10.3575      26.3664 
0.000103673      12.6017     -131.074 
-5.32704e-05      5.06165     -68.2002 
6.80220e-05      10.3591     -131.320 
-3.51378e-05      9.98932      24.3606 
1.78723e-05      10.3462     -131.239 
-0.000119949      5.06921     -67.9875 
-7.14231e-05      9.63397      107.268 
-9.31312e-05      11.4540     -131.034 
3.32062e-05      7.63581     -36.4803 
4.88876e-05      9.69071     -33.2988 
-4.82839e-05      2.38809     -143.523 
-0.000109542      10.0078      24.3128 
-5.91261e-05      9.61534      107.302 
-4.19318e-05      8.97422      121.884 
1.52136e-05      8.93650      107.989 
-4.37163e-05      7.10297      51.5198 
5.57760e-05      9.70765     -33.2331 
-9.27084e-05      4.98169      128.481 
4.25317e-05      10.3877     -131.330 
1.48379e-05      7.65211     -36.3901 
-1.46449e-05      8.96353      121.774 
5.39632e-05      8.94277      108.113 
-0.000118294      10.4496      19.3366 
-3.88152e-05      2.40380     -143.799 
-2.68874e-05      11.3603      115.888 
3.87994e-05      2.41890     -29.7383 
3.97509e-05      8.27327     -66.0365 
-1.35671e-05      7.22067     -90.6371 
1.32759e-05      7.68417     -36.2141 
2.58994e-05      6.05221     -143.734 
7.53952e-05      12.5985      41.3320 
-5.60357e-05      7.09084      51.6432 
1.28275e-05      9.10227      171.409 
5.91299e-05      7.37641     -15.7300 
1.24159e-05      10.4572     -131.433 
4.73261e-05      5.66014      67.7839 
-2.33305e-05      11.4387     -131.101 
