! Center RA: 12 21 31.69052,  Dec: +28 13 58.50011 (2000.0)
! Established model.
! Flux (Jy) Radius (mas)  Theta (deg)  Major FWHM (mas)  Axial ratio   Phi (deg) T \
! Freq (Hz)     SpecIndex
 0.0386463    0.0202604      0.00000 
 0.0453862      0.00000      0.00000 
0.00308207    0.0202604      90.0000 
 0.0227945    0.0286526      45.0000 
0.00708142     0.832685      114.094 
0.00801288     0.824622      112.808 
0.00303804    0.0562440      45.0000 
0.00199643     0.817257      111.547 
0.00761340     0.345185      100.015 
0.00207768    0.0720098      33.5245 
0.000624181     0.349279      103.290 
0.00234815     0.761740      113.206 
0.000590873     0.329594      104.100 
 0.0110281     0.134233      63.4349 
0.000840488     0.780402      112.620 
0.00455901     0.325253      100.636 
0.000797845     0.798447      112.081 
0.00153878     0.743162      113.822 
0.000508677     0.810035      110.214 
0.00253247     0.821746      108.418 
0.00255884     0.116465      58.9729 
0.00269096     0.690733      112.079 
0.00227571     0.475398      104.628 
0.000217563     0.828371      109.748 
0.00286534     0.751254      115.183 
0.00193330     0.495028      104.036 
0.00304365     0.840993      107.982 
0.00189541     0.306099      101.310 
0.00112019     0.621223      104.909 
0.000677720     0.322129      97.0919 
0.00608092    0.0286526     -135.000 
0.00321673    0.0202604     -90.0000 
0.00157556     0.616492      103.157 
0.000172300     0.835176      106.709 
0.00128957     0.860287      107.566 
0.00323226     0.470689      102.241 
0.00103194     0.885104      108.435 
0.00188855     0.778270      115.898 
0.000360597     0.128090      51.1829 
0.000281441     0.302778      97.5477 
0.00140095     0.760096      116.565 
0.00159621     0.910821      109.241 
0.000952938     0.612198      101.310 
0.000136337     0.291183      106.006 
0.000631205     0.320306      93.6266 
0.00132823     0.278155      111.026 
0.000366521     0.917436      110.391 
0.000472934     0.795867      101.585 
0.000796213     0.608549      99.4391 
0.00272324     0.936453      109.960 
0.000116858     0.805400      116.565 
0.000846418     0.319665      90.0000 
0.000112811     0.787330      117.224 
0.000219627     0.831621      117.166 
0.00170630     0.772985      100.459 
0.000160413     0.286050      114.817 
0.000202971     0.145849      74.1761 
0.000586103     0.858942      117.752 
0.00151487     0.141777      81.7841 
0.000766625     0.260038      112.569 
0.000103399    0.0896014      26.3505 
0.00101052     0.605655      97.6181 
0.000456754     0.268467      116.565 
0.00137889     0.107434      21.7271 
0.000406029     0.320306      86.3734 
0.00129327     0.769565      98.9755 
0.00130556     0.159832      90.0000 
0.000281192     0.306099      78.6901 
0.000340787     0.868561      118.934 
0.00118308     0.769370      117.915 
0.00292549    0.0562440     -135.000 
0.000245749     0.297155      70.3754 
0.000243855     0.943561      111.116 
0.000154591     0.339925      90.0000 
0.000908498     0.603304      95.7106 
0.000802805     0.885686      118.324 
0.00121877     0.961787      110.697 
0.000227756     0.278118      120.301 
0.000528639     0.304558      66.7829 
0.000292747     0.766666      97.4798 
0.000756045     0.786014      97.2946 
0.000135148     0.304887      121.617 
6.97113e-05     0.360755      93.2195 
0.000192910     0.380236      93.0544 
0.000358975     0.895107      119.423 
0.000192002     0.295127      61.6104 
6.26571e-05     0.315980      124.747 
0.000521354     0.588572      99.7625 
0.000298016     0.506166      99.1272 
0.000188603     0.631341      100.963 
0.000278893     0.509625      101.293 
0.000415862     0.753070      100.739 
9.13826e-05     0.486913      99.4914 
0.000172159     0.635505      102.756 
0.000409400     0.490508      101.740 
8.20164e-05     0.659734      104.020 
0.000891332     0.950796      104.628 
0.000230482     0.858831      114.796 
0.000152525     0.800901      92.8463 
0.000154971     0.253192      108.489 
7.61055e-05     0.209153      106.680 
7.59550e-05     0.756949      102.190 
0.000533257     0.184432      102.453 
0.000144055     0.466942      99.9013 
7.39258e-05     0.679409      103.606 
0.000419246     0.867194      115.966 
0.000412763     0.161111      97.2243 
0.000141088     0.800169      91.4509 
0.000382658     0.965599      103.161 
0.000134864     0.113549      45.0000 
6.85970e-05     0.737890      102.510 
6.81344e-05     0.742697      117.238 
0.000320584     0.820173      90.0000 
0.000190524     0.752186      118.610 
0.000180735     0.876255      117.158 
0.00121952     0.128090      38.8171 
0.000248376     0.885454      115.392 
0.000792416      1.86427      99.2652 
0.000228240     0.761721      119.899 
0.000117788     0.961344      102.029 
0.000171849     0.302778      82.4523 
0.000161577     0.820423      88.5849 
0.000215701     0.894329      116.565 
0.000111815     0.961610      106.922 
0.000418224     0.749560      99.2171 
0.000111954     0.957327      100.843 
5.57657e-05      1.16287      86.0408 
0.00144186      1.16438      85.0830 
5.37394e-05     0.953723      99.6476 
0.000257543      1.86112      98.6496 
5.26873e-05     0.967701      108.070 
0.000102360     0.580403      87.9995 
5.19083e-05     0.950648      98.4883 
0.000202669      1.97656      101.075 
0.000237936     0.772020      121.203 
0.000100411     0.954815      109.560 
5.07103e-05     0.310708      75.0240 
0.000171697     0.925372      96.1914 
0.00220888      1.84109      98.7444 
0.000453910      1.29890      99.7453 
9.67874e-05      2.00040      101.533 
0.000400042     0.903572      117.714 
0.000183268     0.581411      86.0777 
0.000524170      1.99645      100.964 
0.000297706     0.746582      97.6822 
0.000175155     0.313099      63.3735 
8.62840e-05     0.189835      108.435 
4.42140e-05     0.912496      115.996 
0.000143659     0.923472      94.9879 
4.32599e-05     0.368782      130.627 
0.000311368     0.951048      112.255 
0.000272791     0.782708      122.471 
0.000122049     0.495028      75.9638 
0.000414200      1.31814      99.6017 
8.10748e-05     0.583147      84.0913 
8.00140e-05     0.381773      132.849 
0.000155280     0.322315      60.2717 
0.000357162      1.79102      106.203 
0.000108226     0.940038      113.823 
0.000191696      2.01634      100.854 
0.000216656     0.912809      118.798 
7.34931e-05     0.197181      114.029 
0.000254059     0.921931      93.7334 
0.000109118     0.585580      82.1191 
7.37315e-05     0.424483      135.000 
0.000202950     0.744225      96.1935 
0.000104346     0.500328      73.7123 
0.000433837      2.01276      100.309 
3.59818e-05     0.930071      115.469 
0.000104690     0.332828      57.2415 
0.000100805     0.438496      136.803 
0.000747392    0.0720098     -146.476 
0.000272456     0.905232      120.540 
0.000213579     0.793353      123.660 
9.75423e-05      1.30249      100.624 
0.000126811     0.588572      80.2375 
0.000559815     0.958607      113.334 
3.29649e-05     0.205897      118.994 
0.000125533     0.327950      52.3435 
0.000579439      1.32167      100.468 
0.000126874     0.134233      26.5651 
6.40889e-05      1.18867      83.2204 
0.000177553     0.453478      138.555 
0.000120754      1.23647      80.6749 
3.12315e-05     0.480914      73.0353 
0.000368674      3.13052      102.177 
3.09799e-05     0.178866      116.673 
0.000142898      1.81619      106.638 
0.000463789      3.15032      102.100 
0.000113569     0.486965      70.8391 
0.000117252      2.03196      100.210 
0.000115409     0.144435      33.7726 
8.29397e-05     0.188432      121.981 
0.000111215      1.23978      79.7851 
2.91346e-05     0.742313      94.6386 
0.000901276      2.59986      112.627 
0.000298177     0.340220      49.7414 
8.19899e-05     0.761182      92.9950 
2.83370e-05     0.592344      78.3057 
0.000847533      2.02847      99.6470 
0.000295422     0.152624      23.1616 
0.000272034     0.899141      122.284 
5.33214e-05      1.79678      106.823 
0.000149051     0.580127      136.415 
5.28683e-05     0.616492      76.8433 
0.000124631     0.468857      140.194 
2.67550e-05      1.81881      98.2070 
0.000762056      1.57287      82.6817 
0.000164702      1.14266      85.9707 
2.59114e-05      1.26268      79.0373 
0.000310212      4.75914      110.412 
0.000540097      3.10914      94.4295 
0.000224204     0.804760      124.861 
9.51550e-05     0.493986      68.6188 
2.51782e-05     0.621223      75.0909 
2.51374e-05     0.969133      111.818 
0.000119370     0.199903      126.913 
0.000148392     0.760412      91.5268 
0.000336644      1.82209      107.248 
0.000133198     0.657660      70.4693 
4.74995e-05      2.80881      98.1864 
0.000354955     0.976552      112.881 
0.000232608      2.80599      97.7769 
0.000351653      4.77743      110.331 
0.000215509      1.10137      60.6231 
0.000124633      1.30622      101.465 
0.000104897     0.212689      131.281 
0.000194927     0.594411      137.712 
2.17551e-05      1.26654      78.1708 
8.26573e-05     0.456152      142.150 
0.000231180     0.909711      123.323 
0.000283904    0.0896014     -153.650 
0.000410392     0.339586      45.0000 
2.10147e-05      2.10225      111.198 
0.000171910     0.170734      20.5855 
0.000294421      2.10938      111.692 
6.08316e-05      1.28180      67.0525 
0.000159723     0.892851      124.037 
7.39128e-05     0.950322      40.7093 
0.000132440      2.80342      97.3818 
0.000216967      1.27132      65.8555 
0.000507129      2.02517      99.0819 
0.000253800     0.471709      143.604 
0.000276152      3.30090      99.0640 
0.000108957      3.10764      94.0570 
1.89838e-05     0.226037      135.000 
0.000320243      3.14614      101.739 
7.28013e-05     0.710310      32.3134 
0.000261827      1.55541      81.8738 
0.000287784     0.966811      114.437 
0.000348640      1.32535      101.297 
0.000181257     0.816509      126.027 
7.08710e-05      2.80089      96.9708 
1.83469e-05     0.212689      138.719 
0.000234726      2.04844      99.5520 
3.53710e-05     0.228306      142.075 
6.10291e-05     0.760142      90.0000 
0.000130607     0.720656      1.61102 
0.000152005      3.08685      93.7214 
0.000272944     0.278155      158.974 
1.69781e-05      2.79850      96.5591 
0.000151583     0.693272      33.2085 
3.32626e-05      2.79634      96.1619 
0.000253536     0.189835      18.4349 
0.000100693      1.12193      86.9328 
4.81615e-05     0.608228      136.300 
0.000328900      1.27974      65.0278 
0.000238478      2.71165      103.213 
4.73937e-05      3.29777      98.7164 
7.65844e-05      1.11107      59.7463 
1.59969e-05      2.79424      95.7489 
3.12336e-05      2.79473      99.0526 
4.58039e-05      2.79228      95.3352 
0.000301739      2.44102      97.5248 
0.000115313      3.24117      91.4195 
0.000294484      1.83812      98.1202 
0.000122542     0.623033      137.587 
0.000190871     0.459977      145.636 
7.20645e-05     0.720372      0.00000 
1.47583e-05     0.965195      39.9539 
1.46970e-05      3.08560      93.3460 
4.24105e-05      2.79053      94.9364 
0.000355798     0.904347      125.101 
0.000266364      1.11907      61.1320 
4.12697e-05      3.00112      91.5331 
9.38042e-05      1.82797      107.832 
0.000494033      3.34213      87.9413 
5.56247e-05      2.66012      90.0000 
4.07261e-05      1.04410      110.180 
1.39216e-05      1.92065      91.1865 
0.000210042      3.77215      85.4361 
0.000195499      2.11696      112.201 
0.000163657      1.82503      80.5338 
9.35025e-05      3.79005      85.7649 
0.000572715      2.66020      89.5636 
4.84356e-05     0.740159      1.56856 
0.000283591      3.80781      99.0707 
0.000267150      4.76624      110.641 
0.000413761      3.83468      110.133 
2.57075e-05     0.676411      34.1484 
4.90862e-05      3.22091      91.4284 
3.82955e-05      1.05645      108.770 
7.57380e-05      3.84495      87.0131 
2.47576e-05      2.78886      94.5217 
0.000284534      3.14208      101.377 
9.27443e-05      3.10632      93.6981 
6.37507e-05      2.67963      90.0000 
0.000164636     0.353651      42.7644 
1.24269e-05     0.920997      124.376 
0.000204249     0.476838      147.010 
0.000191295      1.06314      109.803 
1.22592e-05      2.79799      99.4623 
0.000241416      3.86330      87.6289 
0.000119798      1.80869      108.029 
4.54146e-05     0.209153      16.6796 
0.000197416     0.297155      160.375 
0.000264368      3.79094      99.4101 
0.000210515     0.204262      11.2274 
0.000117848     0.651151      137.522 
4.52454e-05      3.66161      88.1210 
0.000194028      1.34159      100.311 
3.34033e-05      3.00065      91.1463 
0.000289564      1.82834      79.9307 
6.31010e-05      2.93388      101.000 
1.13646e-05      2.80831      94.4903 
2.20206e-05     0.926189      13.7323 
4.32570e-05      3.20121      91.7866 
4.86409e-05      2.78144      99.9426 
3.01059e-05     0.107434     -158.273 
2.16225e-05     0.475177      67.7281 
2.17554e-05      3.75039      85.7200 
0.000107902     0.975367      115.520 
0.000122685      3.70668      86.5995 
0.000160653      1.28810      64.2410 
0.000128718     0.912370      15.2593 
0.000190512     0.843774      126.320 
2.00756e-05      2.80685      94.0933 
9.93756e-05      2.09821      112.410 
0.000304579     0.466502      149.020 
0.000159350      5.09426      105.017 
3.73058e-05      3.10508      93.3250 
6.38798e-05      2.98005      90.7647 
0.000139134      3.18171      91.7975 
1.00046e-05      3.68430      87.1982 
0.000428774     0.223431      10.2532 
6.56797e-05     0.467874      70.0247 
0.000236516      3.86419      87.3287 
9.73181e-06     0.740159      88.4314 
9.67504e-06      1.07494      108.435 
0.000106643      1.06991      110.787 
5.46365e-05      1.83546      97.5172 
0.000402458     0.679225      137.373 
9.46813e-06     0.665655      32.7585 
8.42985e-05      2.93782      101.387 
6.82412e-05      1.81507      108.637 
0.000402084      1.12862      60.2646 
9.10542e-06     0.888456      125.825 
0.000201584      2.61857      112.457 
0.000220993      1.08152      109.453 
1.67261e-05     0.760412      1.52677 
0.000323134     0.916147      126.138 
2.56010e-05      1.57547      81.9780 
3.10833e-05      2.80548      93.6805 
7.17857e-05     0.993009      115.035 
4.69777e-05      3.79319      85.1658 
4.93293e-05      1.85818      98.0319 
8.18486e-05     0.126477     -161.673 
0.000173781      3.70794      86.2870 
0.000430422      3.84170      110.417 
0.000116363      1.59296      82.7746 
2.82468e-05     0.649334      33.6901 
6.74228e-05      1.63839      70.0214 
7.76917e-05     0.316312      161.608 
1.56719e-05      2.97986      90.3896 
1.50787e-05     0.740950      86.9232 
9.69969e-05      2.12469      112.707 
5.77660e-05      1.83199      79.3068 
2.98378e-05      2.10602      112.920 
0.000348847      1.85555      97.4354 
2.21448e-05      1.04771      113.646 
0.000108675      3.86519      87.0287 
0.000103842      1.35811      99.3166 
4.42214e-05      1.12141      58.8521 
5.83837e-05      1.82164      109.241 
0.000274882     0.340220      40.2586 
6.75018e-05      2.96035      90.3921 
0.000175890      3.34292      87.5942 
1.46945e-05      1.25851      107.560 
1.44167e-05      2.05086      113.573 
7.46180e-05      3.18115      91.4463 
7.37836e-05      2.94188      101.774 
0.000240824      1.81209      79.1880 
0.000109683      3.68535      86.8836 
5.04963e-05      2.69266      103.308 
0.000372157     0.483985      150.255 
7.90581e-05      1.46698      95.4890 
3.38565e-05      1.23993      107.832 
4.37529e-05      2.76568      100.411 
1.32322e-05      1.01966      115.547 
3.92236e-05      3.90059      88.8205 
0.000215672     0.932586      125.404 
0.000121520      3.80467      98.7694 
0.000219719      2.00591      99.1699 
0.000154675      5.08904      104.796 
2.60239e-05      3.81338      85.1914 
0.000117869      1.64542      69.3583 
0.000103461      2.03299      113.793 
5.03387e-05      1.03798      115.064 
1.29802e-05      2.67971      89.5668 
5.09427e-05      3.86625      86.7400 
7.90305e-05     0.878907      17.1819 
6.52969e-06     0.760412      88.4732 
1.84488e-05      2.80425      93.2674 
7.56296e-05      3.43341      84.9847 
0.000173681      1.24628      108.719 
0.000128901      2.43854      97.0703 
3.65318e-05     0.184676      130.551 
1.23158e-05      3.16146      91.8090 
7.57100e-05      3.92022      89.4187 
5.88900e-05     0.310708      165.024 
2.21779e-05      2.40687      105.423 
6.30127e-05      3.86745      86.4403 
0.000128926      1.27894      63.0290 
0.000148158      3.16090      91.4556 
1.72530e-05      2.96028      90.0000 
1.04392e-05     0.761182      87.0050 
3.44743e-05      3.79431      99.7119 
5.61191e-06      1.00142      116.047 
0.000215842      2.66042      89.1435 
0.000102250      4.77316      110.860 
0.000113846      2.94002      90.0000 
1.04050e-05     0.632576      34.7080 
1.60396e-05      1.05568      114.616 
6.12202e-05      3.86871      86.1519 
5.01170e-05      2.70726      102.811 
4.72605e-05      1.83513      110.413 
1.00898e-05      1.01048      117.079 
1.93949e-05      1.48640      95.4170 
1.00953e-05      1.02856      116.565 
1.01787e-05     0.243395      9.40424 
2.97112e-05      2.62609      112.850 
5.25908e-05      3.43517      84.6605 
9.99629e-05      1.65268      68.7010 
9.61222e-06      1.04672      116.069 
9.49216e-05      2.94593      102.146 
0.000125305      2.19306      83.7139 
6.91123e-05      3.92861      86.2107 
2.29147e-05     0.855930      127.412 
3.64542e-05      1.59554      82.0795 
2.09382e-05      2.80321      92.8693 
8.47298e-05      1.08817      110.422 
8.10465e-05      2.64477      112.680 
9.10013e-06     0.806114      133.982 
5.31939e-05     0.329594      165.900 
5.86446e-05      3.92007      89.7039 
4.59342e-06      3.81513      84.8882 
1.24735e-05     0.571959      36.4640 
7.82439e-05     0.145849     -164.176 
3.23960e-05      2.13230      113.191 
1.30184e-05      1.00269      118.617 
0.000130256      2.77716      109.346 
2.17910e-05      3.81812      98.1349 
3.62443e-05      3.81699      84.5853 
6.80406e-05      3.41500      84.6289 
7.71357e-05     0.820313      135.000 
0.000176012      3.93000      85.9159 
1.63650e-05      3.81530      97.8337 
3.69154e-05      1.84230      111.004 
0.000117943     0.905232      96.3297 
5.52272e-05      2.01447      114.025 
9.34811e-05     0.872109      126.604 
1.95121e-05      3.04219      87.7382 
9.90513e-06      1.01218      119.587 
7.53621e-05      1.65536      101.850 
0.000119598      1.67157      68.9533 
8.00131e-05      3.34379      87.2602 
9.18060e-05      3.83268      97.4923 
7.66971e-05     0.994616      120.163 
1.09545e-05     0.883858      95.2120 
0.000143458     0.501018      151.362 
8.27901e-05      3.04305      87.3570 
3.69998e-06      2.74952      100.902 
0.000112843      3.96788      104.601 
-0.000595818     0.651397      107.913 
8.16279e-05      1.26502      50.7775 
9.18067e-05      3.41695      84.2907 
0.000198523     0.461573      72.3015 
2.17359e-05      3.83357      85.2168 
3.45347e-06      1.63554      78.0044 
3.43212e-06      1.07726      111.794 
6.67357e-06     0.349279      166.710 
6.27042e-05      2.91983      89.6024 
8.83363e-05      2.67061      112.920 
4.31594e-05      1.63987      77.3119 
3.33207e-06      2.94009      89.6052 
0.000102876      2.19093      84.2406 
4.77366e-05      3.92002      90.0000 
3.73000e-05     0.184432      12.4530 
2.86333e-05      1.84938      111.568 
2.07032e-05     0.345185      169.985 
1.82875e-05     0.948556      124.721 
8.18250e-05     0.510656      149.441 
1.46942e-05      3.84855      110.689 
6.10401e-06      5.08410      104.584 
0.000142146      3.93150      85.6214 
3.77065e-05     0.834763      135.983 
3.43390e-05      5.05941      104.420 
1.98011e-05     0.898283      16.8001 
8.37219e-06     0.971135      122.376 
