! Center RA: 12 21 31.69052,  Dec: +28 13 58.50011 (2000.0)
! Established model.
! Flux (Jy) Radius (mas)  Theta (deg)  Major FWHM (mas)  Axial ratio   Phi (deg) T \
! Freq (Hz)     SpecIndex
 0.0733584    0.0202604     -90.0000 
0.000403383    0.0633577      71.3505 
0.00462850    0.0720098      56.4755 
0.00738258    0.0828082      75.8378 
 0.0154297    0.0397705     -90.0000 
 0.0113913    0.0896014      63.6495 
0.00913983     0.101837      78.5245 
0.00540098     0.107434      68.2729 
0.00647087    0.0600310     -90.0000 
0.00608832    0.0446338     -116.996 
0.000297597     0.121759      80.4216 
0.000294731     0.201375      84.2257 
0.00371622     0.219863      90.0000 
0.00809497     0.240124      90.0000 
0.00300772    0.0633577     -108.650 
0.000267420     0.200353      90.0000 
0.00389414     0.259634      90.0000 
0.000876572    0.0828082     -104.162 
0.000712188     0.260423      94.4620 
0.00490867    0.0802914     -90.0000 
0.00368224     0.280627      94.1402 
0.00109710      1.01401      111.990 
0.000445062     0.995250      112.427 
0.000803617     0.861421      111.783 
0.00113110     0.300838      93.8616 
0.000660339    0.0633577      18.6495 
0.000271006     0.140322      90.0000 
0.000357406      1.03212      111.585 
0.000434609    0.0600310      0.00000 
0.000178042      1.06870      107.404 
0.000351508     0.835434      111.056 
0.00182496     0.161111      97.2243 
0.00106256      1.06303      106.401 
0.000580651     0.817257      111.547 
0.00140157      1.02177      113.044 
0.000534459     0.319665      90.0000 
0.000687175     0.791053      110.721 
0.000904883     0.204262      101.227 
0.00232458      1.08248      106.098 
0.000699483     0.101837     -101.476 
0.00135135    0.0802914      0.00000 
0.000491853     0.765732      109.820 
0.000283439     0.320306      93.6266 
0.000402729     0.339925      90.0000 
0.000457660     0.746703      110.347 
0.00100676     0.976552      112.881 
0.00159417    0.0998015     -90.0000 
0.000552631     0.340529      93.4109 
6.28004e-05     0.740145      108.931 
0.000422268     0.721011      109.453 
0.000303399      1.00315      113.497 
0.000706190     0.360755      93.2195 
0.000115382     0.714519      107.921 
5.77300e-05     0.184432      102.453 
5.72485e-05     0.905879      112.039 
0.000277688     0.695981      108.415 
0.000321588     0.880267      111.293 
0.000459579    0.0828082      14.1622 
0.000211710     0.670704      107.381 
0.000300813     0.227911      105.272 
5.15439e-05     0.664933      105.714 
0.000150223     0.645453      106.202 
0.000245453     0.380236      93.0544 
0.000147555     0.640096      104.460 
4.82942e-05      1.04771      113.646 
0.000424316     0.951048      112.255 
0.000568211     0.932329      112.726 
0.000555443      1.06740      103.001 
0.000674389    0.0562440      45.0000 
0.000310698     0.958607      113.334 
0.000103645     0.592344      101.694 
0.000388703      1.08715      102.760 
0.000101691     0.506166      99.1272 
0.000148443     0.635505      102.756 
5.00627e-05     0.612198      101.310 
7.85123e-05     0.486913      99.4914 
4.95069e-05     0.798447      112.081 
0.000373567     0.443806      97.7739 
0.000716899    0.0828082     -75.8378 
0.000323072     0.631341      100.963 
0.000566180     0.424483      98.1301 
9.42734e-05     0.824622      112.808 
0.000884119     0.266484      103.019 
0.000178062      1.01919      105.940 
9.06015e-05     0.984607      113.967 
0.000218515     0.832685      114.094 
0.000257029      1.10618      102.537 
0.000130698     0.608549      99.4391 
0.000438929     0.286260      102.105 
0.000530518     0.466942      99.9013 
0.000289906      1.01140      114.549 
0.000246837     0.627803      99.1471 
0.000696858     0.446997      100.348 
0.000159970     0.841160      115.353 
0.000332833      1.03869      105.633 
4.01414e-05    0.0720098      33.5245 
0.000224478      1.12597      102.313 
0.000257655    0.0896014     -63.6495 
0.000193530      1.01966      115.547 
0.000229269     0.624998      97.3810 
0.000529548    0.0848966      45.0000 
0.000112979     0.822896      115.958 
0.000414584     0.101837     -78.5245 
0.000288875      1.04672      116.069 
0.000143798     0.645096      97.1498 
7.24484e-05     0.849697      116.542 
0.000205588     0.831621      117.166 
3.48286e-05     0.622720      95.5320 
0.000135517     0.642889      95.3579 
0.000233794      1.05578      117.057 
0.000256065      1.14577      102.097 
0.000131150      1.04433      106.703 
0.000187947     0.509625      101.293 
6.53295e-05     0.663064      95.1944 
0.000190093     0.814312      117.793 
0.000277695     0.100252     -53.2159 
3.25400e-05     0.310708      104.976 
0.000840356     0.427819      100.817 
0.000337202      1.08207      117.507 
9.49969e-05     0.704700      96.5423 
0.000376474     0.100252      53.2159 
0.000165137     0.407936      101.351 
9.11461e-05     0.724832      96.3598 
3.07514e-05     0.529508      100.864 
3.06269e-05     0.369026      102.567 
3.05347e-05     0.601626      93.7903 
0.000261498     0.823954      119.039 
0.000303766     0.581411      93.9223 
0.000167399     0.126477     -108.327 
0.000143675     0.766666      97.4798 
0.000273831     0.100252     -36.7841 
0.000340586      1.16486      101.896 
5.69458e-05      1.09157      118.450 
0.000194884      1.10943      117.952 
2.87276e-05    0.0896014      26.3505 
2.75981e-05     0.744225      96.1935 
0.000385186     0.833977      120.256 
0.000297720     0.786014      97.2946 
0.000305828      1.11907      118.868 
0.000173814     0.247514      104.036 
0.000101859     0.100252      36.7841 
0.000644130     0.764371      96.0296 
0.000123415     0.134233     -116.565 
2.56609e-05     0.561200      94.0638 
4.98575e-05     0.113549     -45.0000 
0.000448981     0.116465     -31.0271 
0.000396769     0.580403      92.0005 
2.46911e-05     0.490508      101.740 
0.000118686     0.560155      92.0728 
0.000163445     0.116465      58.9729 
2.43111e-05      1.13685      118.375 
0.000273249      1.14625      119.233 
0.000275175     0.470689      102.241 
0.000249582     0.843976      121.401 
0.000479784     0.291183      106.006 
0.000194182      1.18880      102.615 
8.95825e-05     0.144435     -123.773 
0.000378058     0.950432      120.351 
0.000293705     0.113549      45.0000 
4.29823e-05      1.16332      118.764 
0.000312589     0.977152      120.760 
0.000426586     0.152624     -113.162 
8.38462e-05     0.816540      120.973 
4.20208e-05      1.18112      118.291 
0.000517498     0.806114      97.1118 
4.11234e-05      1.17320      119.631 
4.07544e-05      1.19900      117.832 
0.000118956     0.788772      120.468 
0.000201145      1.18469      101.694 
0.000183699      1.00495      121.162 
3.98111e-05      1.21628      117.403 
3.94563e-05     0.126477     -18.3275 
1.97422e-05     0.107434      21.7271 
3.89268e-05      1.15628      120.109 
7.70299e-05      1.23431      116.970 
3.78084e-05     0.128090     -38.8171 
0.000162213     0.134233     -26.5651 
1.91085e-05     0.826750      122.132 
0.000175658     0.799236      121.720 
5.57473e-05      1.13880      120.621 
0.000173266      1.03341      104.551 
3.72213e-05     0.761721      119.899 
1.87133e-05      1.25240      116.550 
1.85010e-05      1.26158      117.373 
7.22757e-05      1.27894      116.971 
0.000424833     0.580049      90.0000 
0.000183872     0.116465      31.0271 
0.000235780      1.00899      103.768 
0.000277122      1.16658      120.970 
0.000290041     0.987667      121.770 
1.75941e-05      1.29703      116.565 
6.28850e-05     0.783776      95.8798 
0.000102068      1.32424      116.957 
3.42804e-05     0.734463      119.367 
4.50370e-05     0.559789      90.0000 
0.000340035     0.984607      102.903 
0.000304530     0.144435     -33.7726 
0.000242323     0.772020      121.203 
0.000143206      1.35050      117.320 
0.000295724      1.18075      100.731 
1.57899e-05     0.128090      51.1829 
0.000287018     0.271765      107.184 
0.000160919      1.37783      117.682 
0.000130648     0.128090      38.8171 
1.48417e-05     0.837701      123.306 
0.000287747      1.19336      121.291 
4.22856e-05      1.14775      131.475 
5.57636e-05     0.809664      122.895 
0.000451886     0.161670     -119.778 
0.000171312      1.40455      118.044 
0.000153418     0.134233      26.5651 
9.02091e-05      1.16076      132.196 
0.000233999     0.782708      122.471 
0.000202301     0.161670     -29.7779 
3.61035e-05      1.15398      98.9784 
2.46482e-05     0.540658      87.8524 
0.000175912      1.43162      118.352 
8.08201e-05      1.17446      132.929 
0.000467891     0.560155      87.9272 
4.65187e-05     0.297155      109.625 
1.18298e-05     0.440193      87.3620 
0.000193208     0.145849      15.8239 
4.50943e-05      1.21072      120.793 
0.000107729     0.278155      111.026 
1.14399e-05     0.441522      84.8320 
2.26313e-05      1.20454      101.499 
0.000225514     0.754763      121.999 
0.000115679     0.422095      84.5935 
3.30076e-05     0.600310      90.0000 
1.10521e-05      1.12908      97.1392 
0.000165327      1.45910      118.674 
2.17239e-05      1.23208      103.131 
6.32155e-05      1.22122      121.610 
0.000102837      1.18835      133.644 
2.12507e-05     0.404436      98.5360 
1.06377e-05      1.10459      95.1839 
7.98807e-05      1.25651      103.820 
0.000233286     0.172194     -35.4216 
0.000140806      1.23852      121.119 
0.000266597     0.580403      87.9995 
4.94906e-05      1.08054      92.1093 
4.02759e-05      2.37699      112.241 
0.000197565     0.304558      113.217 
4.78809e-05     0.152624      23.1616 
0.000166709      2.38473      112.692 
9.74538e-06     0.424483      81.8699 
2.84034e-05      2.25573      104.901 
0.000158211     0.404436      81.4640 
0.000110324      1.48596      118.998 
6.44334e-05      1.20190      134.317 
7.25675e-05     0.967319      119.767 
9.65623e-05      1.28019      104.460 
0.000286323     0.181229      6.41879 
0.000145559     0.726874      121.491 
0.000233112      1.06049      88.9053 
0.000162142     0.431906      103.360 
9.10966e-06      2.23171      104.527 
0.000112471      2.22690      104.041 
9.01014e-05      1.18749      135.000 
9.27196e-05      1.51316      119.273 
0.000168770      2.17508      114.434 
0.000101355      1.25526      120.658 
0.000113858      1.30495      105.099 
3.13923e-05      1.02868      103.499 
5.54515e-05      1.53086      118.902 
0.000315425     0.940357      119.286 
7.52376e-05     0.388092      78.0600 
6.04634e-05     0.313099      116.626 
4.58269e-05      1.20190      135.683 
0.000142291     0.700075      120.964 
0.000100220      2.39262      113.140 
5.86637e-05      1.54076      119.561 
0.000412451     0.184676     -139.449 
0.000174287      1.37237      149.326 
0.000312376      2.14858      114.184 
7.21456e-05      1.55776      119.207 
6.73507e-05     0.169793     -45.0000 
3.59799e-05      1.20310      137.022 
9.63428e-05     0.184432      12.4530 
0.000141988     0.340058      118.035 
6.15656e-05     0.373757      74.5128 
1.40781e-05      1.28304      120.975 
0.000148581     0.201375      5.77433 
1.38755e-05      1.29982      104.237 
4.07968e-05      1.20389      138.361 
7.38660e-05      1.58498      119.466 
6.29863e-05      1.30046      120.516 
0.000117277      1.32452      104.871 
1.94195e-05     0.635182      118.200 
0.000153093     0.184676     -40.5508 
8.00453e-05      2.41825      113.383 
0.000160758     0.672314      120.372 
2.52739e-05      1.19052      139.089 
4.45953e-05     0.367749      67.5690 
7.65366e-05      1.31730      120.085 
7.47525e-05      1.61260      119.738 
0.000186749      1.10890      140.850 
4.13570e-05      1.17378      134.327 
0.000348553      1.04177      86.6965 
1.83139e-05     0.360505      70.5467 
7.18325e-05      1.40672      119.847 
0.000111311     0.357396      63.4349 
0.000150169      1.42368      119.456 
4.66014e-05      1.63961      120.015 
4.02868e-05      2.40035      113.568 
0.000264087     0.204262      11.2274 
0.000173933      1.34339      104.657 
5.89709e-06      1.20591      139.720 
0.000189162      2.20238      103.657 
0.000122865      1.21910      138.993 
3.91076e-05      1.65719      119.664 
9.37108e-05     0.350038      120.964 
9.27450e-05     0.184676     -49.4492 
0.000157769     0.220795      5.26495 
0.000161679      1.05749      105.348 
0.000159001      1.36215      150.059 
0.000173032      2.42636      113.822 
0.000352267      1.68446      119.900 
0.000122196      1.45130      119.760 
3.13807e-05      1.36300      104.442 
1.55057e-05     0.561200      85.9362 
2.94029e-05      1.15971      133.610 
0.000214383     0.350038      59.0362 
8.22635e-05      1.38775      105.043 
0.000419865      1.38263      104.232 
5.17392e-05     0.737659      122.833 
1.42965e-05     0.710310      122.313 
8.42253e-05     0.223431      10.2532 
4.78570e-06      1.49552      119.652 
4.75199e-06      2.20124      114.704 
2.29144e-05     0.455823      105.272 
1.86745e-05      1.46893      119.367 
0.000100029     0.360880      123.723 
-0.000602384    0.0896014      153.650 
3.58896e-05     0.828914      98.3282 
0.000136169     0.776571      124.489 
8.46347e-06      1.11826      132.825 
0.000215076     0.450910      102.787 
0.000118177      2.43462      114.258 
0.000115012     0.843774      126.320 
0.000308869     0.344213      54.4042 
0.000129434      1.32496      151.112 
0.000191547      2.14036      113.689 
2.82233e-05     0.332828      122.759 
3.28211e-05      1.23446      139.610 
0.000106661      1.09622      141.671 
1.61220e-05      1.24769      138.902 
5.02264e-05     0.851327      99.4872 
0.000118991     0.344213      125.596 
0.000194162      1.69465      120.494 
0.000223737     0.205897     -151.006 
3.03583e-06      1.38919      149.737 
9.64200e-05      2.46112      114.479 
9.48811e-05      1.26246      139.484 
0.000129065      1.43375      120.161 
5.67971e-06      1.35251      150.776 
2.51759e-05      1.37909      150.464 
7.50788e-05     0.189835      18.4349 
4.74602e-05     0.855930      127.412 
4.93936e-05     0.922740      119.901 
-0.000197494    0.0828082      165.838 
9.19097e-05     0.156126     -39.7351 
6.32216e-05      2.44270      114.676 
2.18035e-05      1.40672      150.153 
6.50276e-06     0.315980      124.747 
4.13390e-05     0.188432     -148.019 
3.35440e-05     0.327950      127.657 
4.08947e-06     0.874671      100.529 
4.83550e-05      1.70502      121.081 
-7.85306e-05     0.269397     -138.048 
3.85072e-06     0.524694      107.735 
3.68432e-06     0.854760      100.777 
1.84294e-06     0.550320      109.102 
0.000488574      12.2375      141.370 
0.000481997      9.87341     -70.7223 
0.000420152      9.01770      7.52123 
3.58104e-05      9.86699     -70.8292 
0.000335254      7.49663     -25.6083 
6.52337e-05      7.51423     -25.5440 
-0.000252787      3.48546     -96.9246 
-0.000420899      9.02909     -131.138 
-0.000153477      6.14015     -52.9424 
-0.000148196      8.66347     -110.403 
-0.000277612      9.71369     -30.8446 
0.000120524      1.67867     -21.6682 
0.000277411      6.70848      132.824 
-0.000406365      12.6678      42.6330 
-0.000139581      7.57990      90.4538 
0.000142600      5.76895     -148.901 
0.000426625      10.0243      84.6180 
0.000113454      5.29943      30.6284 
0.000319892      11.4458      122.440 
-0.000269869     0.345185     -79.9848 
-0.000190283      9.37071     -148.618 
-0.000158515      9.53907      93.6081 
5.81461e-05      4.35662     -117.624 
-0.000135066      7.11918      94.1889 
0.000260552      9.56945      149.200 
-0.000183978      6.12796     -53.0936 
0.000103224      6.46085    -0.885089 
0.000155351      5.43263      79.3901 
5.57806e-05      11.5978     -118.421 
-5.36491e-05      12.7532      129.080 
-7.96489e-05      7.93874     -86.0977 
-0.000130926      7.94007      90.4332 
-2.78275e-05      9.38183      13.5628 
0.000127935      4.36526     -117.265 
-0.000104994      5.53883     -100.823 
-0.000302639      11.3881     -56.1707 
0.000128105      10.4612     -132.442 
2.73840e-05      9.81313      55.6282 
0.000102290      2.03962      138.191 
-2.72428e-05      4.36558      56.0149 
0.000150958      9.99662     -98.7475 
-7.88989e-05      9.62583     -161.713 
0.000126150      4.04053     0.851286 
-0.000124301      4.61435      60.1037 
0.000123821      6.60648      124.266 
-7.57778e-05      7.72728     -139.095 
5.21053e-05      6.48111    -0.882322 
-9.96970e-05      7.01998     -89.6754 
7.44253e-05      11.3441     -53.6759 
-2.63742e-05      4.37652      55.8031 
-5.17208e-05      11.4718      129.908 
9.96135e-05      9.03778      7.50442 
-7.62572e-05      4.17614     -20.1705 
4.91118e-05      10.1121     -159.629 
2.58643e-05      4.72649      132.941 
2.57661e-05      1.69752     -21.4157 
-0.000122444      4.36039      55.6591 
-7.34079e-05      9.36213      13.5918 
7.30723e-05      5.28201      30.7404 
-0.000120722      9.16023     -105.187 
4.92342e-05      11.5885     -118.336 
-7.28037e-05      5.18517     -9.10108 
2.50804e-05      3.18083     -39.8990 
9.55462e-05      12.2660      141.356 
-9.59862e-05      7.92678     -92.3112 
-4.84325e-05      7.56457      162.138 
-7.15724e-05      13.5639      44.1034 
2.44465e-05      9.80851      55.4662 
-4.76927e-05      8.58992     -168.588 
-4.76197e-05      6.31543      159.612 
-4.78431e-05      9.54894     -51.3775 
-4.76013e-05      8.67543     -110.231 
2.42845e-05      5.75225     -148.800 
-4.75576e-05      5.95498      69.5555 
2.40936e-05      7.59121      82.1254 
-4.74820e-05      4.19516     -20.0750 
-2.40067e-05      11.5134      129.998 
-4.70567e-05      9.60731     -161.677 
-4.73037e-05      7.03154      30.7991 
7.03035e-05      10.6924      139.246 
-4.69387e-05      4.96475      64.4652 
2.38080e-05      1.43015     -47.8497 
-4.66653e-05      9.66194      5.34309 
-2.35555e-05      7.94872      134.185 
4.66105e-05      10.8320     -127.272 
-4.60746e-05      8.89598      100.754 
4.60758e-05      10.1435      75.4981 
-2.32585e-05      11.5694      130.022 
2.31989e-05      9.59723      149.158 
-2.31495e-05      5.52278     -101.069 
-2.31000e-05      6.31065      98.5685 
-2.29230e-05      10.0752     -81.3213 
2.28893e-05      7.88714      140.660 
2.27348e-05      3.64013     -90.0000 
! Tentative model.
! Flux (Jy) Radius (mas)  Theta (deg)  Major FWHM (mas)  Axial ratio   Phi (deg) T \
! Freq (Hz)     SpecIndex
-0.000131051      1.90536     -39.0355 
-0.000136104      7.69758     -50.2707 
-6.69933e-05      1.93349     -39.1226 
-0.000154603      10.3157      46.9641 
-0.000154320      7.46686     -55.5863 
0.000101059      8.43784     -113.466 
0.000165238      10.4777     -76.3086 
-6.10637e-05      10.4403     -53.5691 
0.000203336      7.46539      106.979 
2.13807e-05      14.2836      44.8865 
-0.000132613      11.5600      126.771 
-9.09162e-05      10.1668     -78.9995 
-7.37224e-05      1.96367     -123.366 
-7.61590e-05      7.83135      95.1282 
5.91026e-05      14.2977      44.9433 
7.51815e-05      7.17551     -30.8542 
2.05245e-05      10.9817     -28.6188 
9.01571e-05      10.0636     -171.773 
-8.67343e-05      10.4683     -53.5461 
-5.70336e-05      10.3046     -130.119 
5.65898e-05      11.0088     -28.6603 
-5.31367e-05      9.72132      127.813 
-8.29706e-05      7.66942     -50.2901 
-0.000168298      8.53510     -168.374 
5.19205e-05      6.72631      153.892 
-6.23658e-05      1.88987     -39.4174 
-1.85473e-05      2.62800     -126.957 
0.000124299      8.75847     -113.697 
-0.000174443      10.8833     -50.5180 
1.79816e-05      14.3118      45.0000 
-5.05693e-05      1.84391     -49.3987 
-5.16252e-05      12.9884      129.376 
-6.57078e-05      10.6400     -16.1525 
-1.75761e-05      6.49926      85.5878 
-3.42392e-05      9.29210     -36.5986 
-0.000199775      10.2917     -130.034 
