! Center RA: 12 21 31.69052,  Dec: +28 13 58.50011 (2000.0)
! Established model.
! Flux (Jy) Radius (mas)  Theta (deg)  Major FWHM (mas)  Axial ratio   Phi (deg) T \
! Freq (Hz)     SpecIndex
 0.0821299      0.00000      0.00000 
0.000948513    0.0202604     -90.0000 
 0.0102114     0.319665      90.0000 
0.00124035     0.320306      86.3734 
0.00412932    0.0286526      45.0000 
 0.0139650     0.320306      93.6266 
0.00387975    0.0446338      63.0042 
 0.0120910     0.823954      119.039 
0.000650187    0.0896014      63.6495 
0.000632797     0.107434      68.2729 
0.00593983     0.796445      118.473 
0.00179048    0.0202604      0.00000 
0.00389150     0.126477      71.6725 
0.000531062     0.806301      119.738 
0.00454389    0.0286526     -45.0000 
0.00806350     0.145849      74.1761 
0.00478498     0.340529      93.4109 
0.000242122     0.662354      114.997 
0.00246743     0.635505      114.114 
0.00312491     0.161111      82.7757 
0.00731115    0.0446338     -63.0042 
0.00323128     0.360755      93.2195 
0.00352650     0.609116      113.217 
0.00474569     0.841065      118.394 
0.00227081     0.220795      95.2649 
0.00251151     0.380236      93.0544 
0.00102568    0.0397705     -90.0000 
0.000461225     0.240977      94.8229 
0.00363432     0.617068      114.882 
0.000787568     0.868561      118.934 
0.00151169     0.134233      63.4349 
0.00517185     0.858942      117.752 
0.00471003     0.262662      98.7088 
0.00203808     0.400469      92.8999 
0.00215452    0.0600310     -90.0000 
0.00105386     0.653108      117.360 
0.00252606     0.420705      92.7603 
0.00414837    0.0633577     -71.3505 
0.000432936     0.689870      119.521 
0.00288116     0.116465      58.9729 
0.00246608     0.876255      117.158 
0.00120419     0.726874      121.491 
0.000458469     0.700075      120.964 
0.00189810      2.15697      107.262 
0.00181748     0.441522      95.1680 
0.000175700     0.583302      112.144 
0.00223523     0.737659      122.833 
0.00127824     0.282706      98.0871 
0.000322095      2.12678      106.395 
0.00171886     0.894329      116.565 
0.000233868     0.550320      109.102 
0.000644171      2.02851      102.520 
0.000427954     0.128090      51.1829 
0.000144429     0.544027      107.085 
0.000553565     0.113549      45.0000 
6.87719e-05     0.513977      103.509 
6.78082e-05      2.16307      107.775 
0.00100197     0.180093      90.0000 
0.000486175     0.200353      90.0000 
0.00133547     0.814312      117.793 
0.000183944     0.259634      90.0000 
0.000353981     0.279894      90.0000 
0.00127446     0.141777      81.7841 
0.000657966     0.300155      90.0000 
0.000240881     0.121759      80.4216 
0.000777152      2.07634      103.373 
0.00156437      2.10062      103.763 
0.00150796    0.0802914     -90.0000 
0.000141099     0.778695      119.183 
6.97586e-05     0.831621      117.166 
0.000137387     0.761721      119.899 
0.000269371     0.849697      116.542 
0.000391683     0.744225      120.676 
0.000195243     0.381773      95.9795 
0.000317973     0.867194      115.966 
0.000129087     0.424483      98.1301 
0.000125422     0.446997      100.348 
0.000298704     0.754763      121.999 
0.000122253     0.470689      102.241 
0.000639220     0.885454      115.392 
0.000118771     0.466942      99.9013 
0.000939314     0.490508      101.740 
0.000268199      2.08094      103.896 
0.000471683    0.0998015     -90.0000 
0.000108327     0.903799      114.842 
0.000411909     0.912496      115.996 
0.000488831     0.765692      123.285 
5.15797e-05      2.16871      104.426 
0.000101238      2.05664      103.504 
5.06509e-05      2.20725      104.169 
9.89193e-05      2.22690      104.041 
0.00101449     0.101837     -78.5245 
4.95142e-05      2.03767      103.632 
0.00113971     0.930071      115.469 
0.000929871     0.342244      96.6731 
0.000411291      2.01326      103.208 
0.000189658      2.23171      104.527 
0.000800230     0.509625      101.293 
4.61950e-05      1.96461      104.737 
0.000389703      2.25060      104.402 
0.000619935     0.776571      124.489 
8.83276e-05      1.95032      105.464 
0.000203087      1.93708      106.195 
4.19256e-05     0.100252      53.2159 
0.000274927      2.00873      102.645 
0.000119287      2.25573      104.901 
0.000293265      2.27531      104.770 
3.86510e-05     0.938962      116.586 
0.000985010     0.957123      116.043 
0.000712183     0.121759     -80.4216 
0.000281074      1.91763      106.364 
0.000503393     0.529508      100.864 
0.000283244     0.788220      125.703 
4.61941e-05     0.506166      99.1272 
0.000108109      2.15059      108.429 
0.000141292      2.00455      102.101 
0.000166942      2.15708      108.939 
0.000444096     0.116465      31.0271 
9.97793e-05      2.29418      104.645 
0.000785616     0.345185      100.015 
9.84270e-05     0.709570      130.411 
0.000129842      2.00040      101.533 
6.55313e-05     0.804760      124.861 
0.000831972     0.526180      98.7772 
0.000242981      2.29939      105.134 
0.000371804      1.89820      106.537 
6.29002e-05     0.832367      125.237 
0.000153300      2.16374      109.447 
0.000124082     0.694267      131.495 
0.000120699      1.98055      101.651 
0.000204205     0.848995      124.449 
8.82750e-05     0.707854      132.723 
0.000638887     0.126477     -71.6725 
0.000439550     0.975367      115.520 
8.54780e-05      2.18215      109.276 
2.88737e-05      1.99645      100.964 
2.87042e-05     0.107434      21.7271 
2.85493e-05     0.679225      132.627 
0.000240613      1.97656      101.075 
0.000722638     0.126477      18.3275 
0.000110432      2.31895      105.003 
0.000340325     0.693106      133.859 
5.56761e-05      2.17031      109.932 
2.75595e-05     0.549419      100.466 
5.42004e-05     0.860182      125.520 
0.000206020      2.18866      109.758 
0.00122135     0.546212      98.4529 
0.000153420      2.32408      105.468 
0.000247941     0.876751      124.751 
0.000195995     0.993009      115.035 
5.00020e-05      1.89253      105.949 
9.56800e-05      1.99283      100.413 
0.000460256      1.87378      106.112 
0.000162319      2.34905      105.812 
0.000185076      2.19560      110.256 
0.000226455     0.679173      135.000 
0.000177411      1.97291      100.519 
0.000307281      1.00142      116.047 
0.000352001     0.888456      125.825 
6.47705e-05      2.37889      106.606 
0.000245910      2.21461      110.074 
0.000239635     0.145849     -74.1761 
0.000122536      1.01140      114.549 
0.000361669     0.693106      136.141 
6.10006e-05     0.322129      97.0919 
6.21129e-05      2.40413      106.930 
0.000327586      1.16486      101.896 
0.000227819      1.98927      99.8390 
0.000117272      2.43531      107.687 
0.000395024     0.141777      8.21587 
5.84848e-05      1.86826      105.515 
3.86902e-05     0.360186      90.0000 
3.79860e-05      2.32384      103.444 
7.42356e-05      1.88292      102.264 
0.000164059      2.22139      110.547 
5.56812e-05     0.325253      100.636 
0.000159171      1.01966      115.547 
0.000106485     0.360755      86.7805 
0.000107491      2.46009      107.998 
0.000176682     0.900464      126.870 
1.84549e-05     0.161111     -82.7757 
5.29883e-05      2.31922      102.957 
3.61299e-05     0.200353     -90.0000 
8.50857e-05     0.306099      101.310 
0.000101610      2.07248      112.098 
0.000154245      1.18469      101.694 
0.000102744      1.87872      101.660 
6.83978e-05      2.23366      109.896 
0.000210438     0.219863     -90.0000 
8.28009e-05      1.02987      114.081 
3.35556e-05     0.134233     -63.4349 
0.000129745      2.48542      108.282 
0.000236530     0.679225      137.373 
0.000238532      2.00591      99.1699 
9.49301e-05      2.31476      102.468 
0.000302209     0.916147      126.138 
0.000137099     0.140322      0.00000 
0.000519430      1.18075      100.731 
0.000167044      2.24037      110.365 
6.42755e-05      1.86312      102.396 
0.000107982     0.362375      83.6991 
1.60576e-05     0.128090     -51.1829 
0.000235562      2.05372      112.311 
6.13881e-05     0.286260      102.105 
0.000262512     0.565518      98.1624 
1.57845e-05     0.402700      116.565 
0.000204080      1.85888      101.786 
0.000171788      1.04771      113.646 
8.24535e-05     0.141141     -45.0000 
0.000131478      2.51104      108.576 
1.49789e-05     0.375627      115.183 
1.48630e-05      3.08474      147.446 
0.000420202      3.05717      147.550 
8.43943e-05      2.31062      101.996 
0.000710901     0.240124     -90.0000 
0.000163089     0.665671      138.656 
9.47975e-05     0.381773      84.0205 
0.000120476     0.144435     -33.7726 
1.43326e-05      2.25201      109.727 
0.000194877      1.03798      115.064 
6.34374e-05     0.384685      117.915 
1.38442e-05      2.51757      109.013 
6.71129e-05      2.53603      108.869 
0.000124657      2.25867      110.193 
0.000342098      2.06150      112.832 
0.000367020     0.927787      127.111 
2.62346e-05     0.266484      103.019 
0.000123825     0.159832      0.00000 
9.06390e-05      1.85499      101.196 
0.000124976      2.32971      101.896 
0.000137800     0.585580      97.8809 
6.22287e-05     0.365154      80.5377 
4.88434e-05      1.85433      106.286 
0.000371917     0.243395      99.4042 
0.000136558      2.54240      109.285 
0.000337831      2.02218      98.5360 
0.000153908     0.652947      139.942 
2.43611e-05      2.24750      110.849 
9.55909e-05      1.83586      101.315 
5.79044e-05      1.06630      113.209 
1.23370e-05     0.608549      99.4391 
0.000144263     0.605655      97.6181 
0.000186519     0.384412      81.0157 
0.000359208      1.20066      100.551 
0.000205772      2.56825      109.563 
0.000196843     0.156126     -39.7351 
0.000366244      2.32562      101.408 
0.000110296      3.57275      97.7251 
0.000168796      1.83199      100.693 
5.20451e-05      1.10196      105.806 
0.000142184      2.26574      110.674 
0.000187179     0.161111      7.22432 
4.14682e-05     0.394577      120.515 
7.02213e-05      1.86011      106.885 
1.09270e-05     0.681013      139.782 
9.12382e-05     0.640096      141.330 
2.10686e-05     0.750414      138.243 
0.000189830      1.02856      116.565 
7.99099e-05      2.04284      113.052 
0.000128807      3.54999      97.4450 
0.000149418     0.624998      97.3810 
2.03001e-05      3.04072      147.353 
2.95183e-05     0.779022      138.124 
8.67142e-05      3.02984      147.676 
0.000190701      2.59415      109.834 
0.000196725      2.06945      113.349 
5.66482e-05      1.80840      100.182 
0.000288605     0.940150      128.096 
6.23056e-05     0.794223      139.099 
9.40111e-06     0.366905      119.396 
2.75431e-05     0.612215      141.669 
0.000391962      3.54742      97.1205 
5.04259e-05      1.09418      108.099 
0.000175555      2.99212      107.108 
0.000219914      3.01274      147.470 
0.000543279      2.66508      106.118 
7.07820e-05      1.80505      99.5720 
8.20742e-05     0.377263      122.078 
0.000101164      2.25479      111.330 
0.000108101      2.30650      101.504 
0.000233357     0.172194     -35.4216 
0.000118532      2.05086      113.573 
6.75012e-05      1.83489      106.464 
8.82149e-06     0.369026      77.4333 
0.000134444     0.627636      142.774 
7.33122e-05     0.388092      78.0600 
0.000119564      1.78178      99.0379 
0.000274864      1.21985      100.384 
0.000127436     0.645096      97.1498 
2.42328e-05     0.822239      138.922 
0.000339340      2.01927      97.9675 
0.000110026      2.61915      110.091 
0.000137301      1.84073      107.068 
6.60102e-05     0.837618      139.833 
7.72869e-06      2.27298      111.152 
0.000360974     0.181229      6.41879 
1.50807e-05      2.26196      111.791 
5.03313e-05      2.24316      111.983 
7.01602e-05     0.373757      74.5128 
7.99802e-05     0.247514      104.036 
2.14495e-05      1.10064      109.102 
6.44635e-05      2.99792      107.464 
7.81528e-05      1.77871      98.3933 
0.000104337      1.01986      118.092 
5.70130e-05      2.27098      107.956 
0.000223267      2.47564      96.4917 
9.68096e-05      2.32170      100.918 
7.22167e-06      1.10744      106.777 
9.07948e-05     0.387976      124.520 
9.36251e-05      2.98477      147.588 
4.04159e-05     0.961621      93.5791 
0.000127936      2.05874      114.071 
4.59942e-05      2.22439      112.178 
3.22805e-05     0.392593      75.2732 
2.02244e-05      3.01725      107.349 
0.000196831      1.75664      97.8567 
4.46194e-05     0.853200      140.711 
0.000221724      2.62618      110.506 
0.000283186      2.30254      101.010 
0.000157091      3.02335      107.715 
0.000250732     0.952783      129.054 
6.51289e-06      1.09540      111.415 
6.49047e-06     0.642889      95.3579 
5.49991e-05     0.960569      92.3729 
0.000142128      2.20633      112.370 
6.33861e-06     0.665204      96.9326 
0.000163337     0.663064      95.1944 
0.000122680      2.96831      147.387 
6.12796e-05      1.10718      110.056 
0.000100513     0.379669      71.5651 
0.000117753      1.23978      100.215 
1.19911e-05      1.10079      87.9295 
2.83901e-05     0.643885      143.865 
0.000190531     0.188432     -31.9812 
0.000104700      1.81619      106.638 
1.19128e-05     0.600310      143.130 
5.98565e-06      1.12103      87.9669 
1.18491e-05     0.880659      140.532 
0.000199318      3.52258      96.5195 
5.96400e-05      1.12193      86.9328 
6.01466e-05     0.896392      141.355 
0.000119992     0.496341      139.906 
8.55231e-05      2.06709      114.583 
0.000114947      1.02920      119.051 
5.59963e-06      1.10170      86.8765 
0.000131537      3.70220      98.6967 
1.07002e-05     0.399806      126.913 
2.50844e-05      2.26481      107.468 
0.000202777      1.75398      97.2010 
4.82940e-05     0.912304      142.150 
8.77639e-05      2.18761      112.571 
3.46000e-05      1.24353      101.134 
0.000153282      3.02958      108.080 
5.05115e-06     0.398226      72.4528 
8.70631e-05      1.12320      85.9007 
0.000133757      1.82209      107.248 
0.000115923     0.386554      68.7149 
7.26858e-05      2.95127      147.175 
6.43648e-05      2.07560      115.092 
4.34627e-05      1.11429      111.035 
5.17849e-05     0.372066      126.223 
7.94746e-05      1.26268      100.963 
-0.000156349     0.184432      167.547 
3.89358e-05      2.23211      112.660 
0.000143167      1.39779      109.213 
9.59461e-05      2.65228      110.763 
4.26814e-05     0.927787      142.889 
1.68380e-05      2.29894      111.423 
8.63786e-06     0.512006      141.366 
2.94346e-05      2.08395      115.578 
4.10770e-05     0.453478      138.555 
8.63619e-05      1.22602      84.3801 
0.000110668      2.03934      97.8886 
2.83956e-05      2.94074      147.494 
8.79557e-05      1.25899      100.057 
0.000114806     0.682496      95.0461 
1.60141e-05      2.06636      115.811 
0.000174306     0.944023      143.631 
0.000262897      3.95548      151.626 
0.000158928      3.94624      151.876 
7.04065e-05      4.02121      150.498 
7.10334e-05      4.03085      150.256 
0.000226575      3.91883      151.997 
9.51383e-05      4.05850      150.150 
9.23907e-06      2.03666      97.3240 
1.82364e-05      2.94707      148.038 
7.29075e-05      1.77597      97.7706 
1.78407e-05      1.38521      107.660 
9.62278e-05      2.16786      94.7653 
0.000146582      2.92990      147.828 
7.77624e-05      1.11980      108.763 
0.000101369      1.39125      108.425 
0.000134198      4.06862      149.903 
7.32549e-05     0.980812      129.194 
2.90359e-05      1.02234      120.574 
3.68918e-05     0.420241      64.6246 
4.85357e-05      2.25319      106.504 
5.53745e-05     0.184432      12.4530 
3.48439e-05      2.47801      96.9572 
6.17199e-05      3.52034      96.1918 
6.21214e-05      1.79678      106.823 
1.45036e-05     0.384386      128.660 
6.13118e-05      3.89144      152.121 
3.40619e-05      2.90680      145.645 
3.38216e-05     0.184676     -40.5508 
7.06497e-06     0.396866      130.860 
4.70184e-05     0.429314      62.1808 
3.99947e-05     0.438496      136.803 
1.96464e-05      2.21412      112.854 
1.94935e-05     0.932586      144.596 
6.50604e-06      1.11345      107.776 
6.45319e-06     0.965195      129.954 
0.000388060      1.46039    -0.794906 
0.000504418      9.83357     -50.6109 
-0.000577314      4.99813      50.1955 
-0.000438422      8.86867     -155.341 
0.000253768      1.59433     -17.5310 
0.000413846      5.28815     -107.610 
0.000397226      1.44014    -0.806089 
-0.000236310      9.75803     -6.23801 
5.02702e-05      4.88334     -72.6008 
0.000352762      8.23288      24.6964 
0.000390567      4.86401     -72.5294 
0.000261081      12.8695     -45.3780 
-0.000185626      4.49327     -123.191 
0.000133092      4.65638     -19.8395 
0.000303330      10.8108     -131.477 
0.000293866      12.5736      45.7085 
0.000175889      1.61886     -17.9814 
-0.000262636      8.08167     -58.3583 
0.000177094      9.55253      26.8871 
-0.000248109      7.34022     -22.9294 
-0.000250641      7.97055      27.6603 
0.000219269      1.61295      17.3222 
8.24644e-05      6.69139      35.0178 
-0.000298008      8.63076     -121.736 
-0.000528294      2.48323      79.3250 
0.000171657      9.71996      68.7678 
0.000288558      9.14007      89.4967 
-0.000125076      9.92371      70.9430 
8.84923e-05      10.5609     -39.2358 
-0.000125866      10.1930     -173.125 
-4.43903e-05      6.83255      15.6221 
-0.000291159      4.50439     -123.407 
0.000205442      12.3256     -41.5794 
-0.000281028      13.8364      43.3607 
-0.000283484      4.44375      168.842 
4.34459e-05      8.86747      135.641 
0.000358725      6.40652     -135.123 
8.45460e-05      4.67544     -19.7553 
0.000198720      11.0837     -36.9312 
0.000279165      11.9546     -54.3954 
0.000241242      8.83935      135.640 
-0.000158918      6.81854      15.8319 
0.000434987      13.6990      138.373 
4.27184e-05      7.59146     -68.0293 
0.000238485      10.5173     -39.2874 
-0.000276049      7.57260      21.2099 
0.000159965      4.20156      144.493 
0.000237300      7.54922      125.836 
-8.21957e-05      5.66533      41.8484 
-4.16435e-05      7.07541     -132.937 
-0.000157484      8.85026     -155.286 
0.000158026      2.75970     -20.8004 
8.04701e-05      2.17356      12.7648 
7.97476e-05      11.8716      145.640 
0.000117070      7.59878     -67.8928 
-0.000117050      9.49239     -11.5462 
0.000154390      1.61886      17.9814 
4.04799e-05      10.5492      64.9880 
-4.03971e-05      9.55890      17.0310 
-0.000116476      8.09829     -58.4308 
-0.000151863      5.94804      77.1788 
0.000153698      10.1064      71.7803 
0.000115859      8.71977      30.1528 
-0.000153262      8.99761      114.000 
0.000114441      9.78208     -80.2306 
3.94250e-05      9.56171      26.9954 
-0.000114490      7.26497     -139.692 
-0.000113238      7.07437     -20.1783 
-0.000113905      5.65026      41.9855 
-7.81078e-05      4.42461      168.793 
7.61804e-05      4.64954     -19.6047 
3.91553e-05      1.61295     -17.3222 
-3.90602e-05      1.29695     -70.1812 
-0.000112817      9.89414     -94.7550 
0.000150940      10.3056      100.285 
0.000150037      10.7974     -131.396 
-7.49555e-05      9.90801     -85.7174 
-0.000113140      3.42237      87.9896 
-3.84303e-05      9.77742     -6.22559 
3.83933e-05      9.72731      68.6566 
7.45469e-05      6.96830     -60.4204 
-7.47929e-05      9.94463      171.674 
-0.000111594      8.62051     -121.626 
7.50628e-05      8.70145      88.9475 
0.000111624      8.44915      175.247 
-7.52026e-05      7.28084      26.4251 
7.45484e-05      4.73713     -146.710 
-3.79087e-05      4.51558     -123.621 
-7.50220e-05      8.07251     -101.143 
3.78011e-05      8.46508      19.8902 
3.77633e-05      8.90840      127.154 
3.77100e-05      9.84924     -50.6857 
7.40534e-05      12.0749      41.2409 
-7.37808e-05      4.25851      174.611 
-3.72843e-05      10.6940     -23.5935 
7.37154e-05      11.3986      61.9504 
