! Center RA: 12 21 31.69052,  Dec: +28 13 58.50011 (2000.0)
! Established model.
! Flux (Jy) Radius (mas)  Theta (deg)  Major FWHM (mas)  Axial ratio   Phi (deg) T \
! Freq (Hz)     SpecIndex
 0.0633252      0.00000      0.00000 
 0.0798914    0.0202604      90.0000 
 0.0635909    0.0202604      180.000 
 0.0185285     0.107434      68.2729 
 0.0306276    0.0286526     -135.000 
 0.0186527     0.134233      63.4349 
0.00335020     0.152624      66.8384 
0.00540096     0.223431      79.7468 
0.00621646     0.126477      71.6725 
 0.0283361     0.240977      85.1771 
0.00891244     0.260423      85.5380 
0.00468750     0.116465      58.9729 
 0.0101951    0.0202604     -90.0000 
0.00539255     0.259634      90.0000 
0.00198229     0.220795      84.7351 
0.000369143    0.0896014      63.6495 
0.00279499    0.0286526      45.0000 
0.000567964    0.0202604      0.00000 
0.00231492     0.279894      90.0000 
0.00400874     0.145849      74.1761 
0.000730113     0.300155      90.0000 
0.000507915     0.320306      93.6266 
0.00253840     0.340529      93.4109 
0.000738613     0.360755      93.2195 
0.00110789     0.381773      95.9795 
0.000267794     0.380236      93.0544 
0.000265074     0.300838      93.8616 
0.00127429     0.401929      95.6787 
0.000517160     0.280627      94.1402 
0.000506672    0.0446338      26.9958 
0.000251844     0.260423      94.4620 
0.00398719    0.0397705      0.00000 
0.00452416     0.243395      99.4042 
0.00273790     0.422095      95.4065 
0.00122265     0.424483      98.1301 
0.000207893     0.164706      76.0271 
0.00375479    0.0286526     -45.0000 
0.00649864     0.443806      97.7739 
0.00141842    0.0446338     -26.9958 
0.00303566     0.247514      104.036 
0.00145894     0.161670      60.2221 
0.00239018    0.0446338     -63.0042 
0.00139428     0.144435      56.2274 
0.00190639    0.0397705     -90.0000 
0.000235151     0.461703      94.9415 
0.00169840     0.463888      97.4354 
0.000332273     0.342244      83.3269 
0.00106196     0.253192      108.489 
0.000743338     0.345185      79.9848 
0.00230680    0.0633577     -108.650 
0.000933885     0.141141      45.0000 
0.00130567     0.481892      94.7340 
0.000430250     0.786103      104.766 
0.000992694     0.483985      97.1250 
0.000791175     0.810060      105.749 
0.000313941     0.128090      38.8171 
0.000757711     0.349279      76.7101 
0.000238670     0.260038      112.569 
0.00100895    0.0600310     -90.0000 
7.60455e-05     0.737890      102.510 
0.000628712     0.241454      114.414 
0.000660119     0.714035      101.334 
0.000357771     0.835176      106.709 
0.000139325     0.116465      31.0271 
0.000379370     0.156126      50.2649 
0.000399312     0.854601      106.319 
0.000380715     0.450910      102.787 
0.000436290     0.354273      73.6379 
0.00143623     0.690371      100.015 
0.000244577     0.134233      26.5651 
6.37231e-05     0.860287      107.566 
0.000180720     0.501338      94.5500 
0.000426718     0.873342      105.959 
0.000301593     0.250509      118.638 
5.82258e-05     0.892839      105.601 
0.000783194     0.907248      104.025 
5.74137e-05     0.437032      105.945 
0.000379074     0.921752      102.554 
0.000732232     0.624998      97.3810 
0.000834140     0.645096      97.1498 
0.000498991     0.278155      68.9736 
0.00155663     0.260038      67.4310 
0.000209177     0.647814      98.8622 
0.000534854     0.667840      98.5944 
0.000790903     0.561200      94.0638 
0.000799388     0.540658      92.1476 
0.000510439     0.520413      92.2312 
0.000223791     0.480248      90.0000 
5.66782e-05     0.887605      104.342 
0.000108254     0.234065      69.9384 
0.000148772     0.440193      87.3620 
5.22397e-05     0.215843      68.1616 
0.000196773     0.422095      84.5935 
0.000243643     0.189835      71.5651 
9.12030e-05     0.404436      81.4640 
0.000175671     0.170734      69.4145 
0.000206124     0.407936      78.6487 
0.000214534     0.926189      103.732 
0.000160534     0.278155      111.026 
0.000280478     0.941538      102.286 
0.000118318     0.178866      63.3275 
0.000467369    0.0720098     -123.524 
7.54114e-05     0.917698      106.434 
0.000420609     0.957327      100.843 
7.40738e-05     0.392593      75.2732 
0.000106671     0.304558      113.217 
0.000207913      3.35143      97.8888 
7.14325e-05     0.923634      107.640 
0.000231074     0.398226      72.4528 
3.50410e-05     0.323277      111.801 
0.000154737     0.718124      102.860 
3.46161e-05      3.37150      97.8416 
3.44436e-05      3.55427      100.043 
3.41803e-05     0.367749      112.431 
0.000255262      3.36879      97.5002 
0.000192586     0.910821      109.241 
0.000608706      3.57422      99.9864 
9.70405e-05     0.128090      51.1829 
0.000239825     0.386554      111.285 
6.24089e-05     0.304887      58.3833 
0.000325984     0.972963      99.4551 
6.32357e-05     0.100252     -126.784 
0.000576018     0.113549     -135.000 
5.93540e-05     0.113549      45.0000 
2.99391e-05      3.29777      98.7164 
0.000213589     0.917436      110.391 
0.000191264     0.417588      73.2909 
8.67029e-05      3.36630      97.1710 
5.78541e-05      3.27849      98.7681 
0.000134432     0.315980      55.2532 
8.14243e-05     0.936453      109.960 
5.57623e-05     0.976496      100.628 
0.000185565      3.26163      99.1741 
0.000995905      3.32268      87.5796 
0.000106537      3.36383      96.8286 
2.77000e-05     0.100252      36.7841 
2.71788e-05     0.394056      113.929 
2.67193e-05    0.0896014      26.3505 
0.000339236     0.411965      112.829 
0.000342985     0.996416      100.413 
5.19556e-05    0.0600310      0.00000 
2.58546e-05      3.38395      96.7878 
0.000193441      3.59086      99.6237 
2.51352e-05     0.354273     -73.6379 
4.83634e-05    0.0828082      14.1622 
0.000119042     0.423858      70.6669 
9.60843e-05      3.38162      96.4469 
0.00146157     0.373757     -74.5128 
0.000139263      3.24163      99.2312 
2.37797e-05     0.742542      104.036 
6.90408e-05     0.327950      52.3435 
6.93384e-05     0.581411      93.9223 
0.000216572     0.128090     -141.183 
0.000608095     0.924690      111.568 
0.000748934     0.753070      79.2611 
0.000464013      3.36149      96.4857 
0.000254153    0.0633577     -18.6495 
8.80273e-05      3.66931      99.4161 
0.000127201      2.92010      96.6849 
0.000174967     0.430710      68.2171 
0.000183921      1.01635      100.206 
0.000283881     0.420241      115.375 
0.000127605     0.312731      50.1592 
4.28197e-05      3.03191      100.640 
0.000162567     0.612215      38.3308 
0.000182159      3.23844      98.8774 
0.000316353      3.68930      99.3646 
2.06605e-05      3.01274      100.708 
8.48514e-05      3.01657      101.086 
0.000235389      2.91781      96.2897 
0.000515460      1.35358      108.957 
0.000966786      1.83068      83.7169 
1.94201e-05     0.571959      53.5360 
0.000112052      1.61051      104.379 
0.000232200      1.95010      100.039 
0.000103596     0.627636      37.2261 
0.000217574     0.144435     -146.227 
0.000221425      2.08353      93.3035 
7.04695e-05     0.278118      120.301 
0.000181524     0.588377      54.7087 
0.000855674      3.32356      87.2435 
0.000242808     0.438632      114.241 
8.81772e-05      2.99669      101.161 
0.000334609      1.03927      101.115 
0.000534469     0.576909      56.3513 
6.90620e-05      1.59089      104.561 
0.000112033     0.900464      36.8699 
1.69065e-05      2.82474      100.190 
0.000521864      1.59610      105.265 
3.19272e-05      2.80481      100.264 
0.000734588      3.34379      87.2602 
0.000127109      2.66791      104.763 
0.000116747      1.00348      4.58930 
0.000161803      2.89767      96.3336 
7.54477e-05     0.985074      5.81482 
0.000313347     0.447333      116.608 
4.59027e-05     0.260826      122.547 
6.11092e-05      3.70855      99.3156 
1.55720e-05     0.438632      65.7588 
0.000129919      2.31108      99.4562 
0.000311099     0.932329      112.726 
7.41660e-05      2.67314      105.183 
9.56042e-05      2.10270      92.7205 
0.000111860      3.25553      98.4831 
4.31297e-05     0.457182      66.8014 
8.62400e-05      4.55564      102.935 
0.000230541      4.02101      104.106 
6.94935e-05    0.0720098     -33.5245 
5.47228e-05     0.643885      36.1354 
0.000193416     0.161670     -150.222 
0.000254145      2.51176      110.021 
1.45679e-05     0.933756      99.8559 
0.000145798     0.910591      98.8646 
0.000315477      2.78858      100.748 
0.000118801      3.70532      99.0064 
0.000156188     0.297458      47.6583 
6.76796e-05      2.65973      105.714 
0.000151627     0.566331      57.9946 
5.20381e-05     0.271820      126.016 
1.39153e-05     0.776764      78.1256 
0.000124542     0.927787      37.1109 
0.000119163      2.26075      103.298 
0.000104237      3.35934      96.1550 
0.000451977      1.82858      84.3479 
0.000444018     0.781185      76.6712 
5.25721e-05      1.93015      100.143 
0.000172510      1.06991      20.7865 
0.000194365      4.55132      102.696 
0.000185040     0.756949      77.8100 
5.20821e-05      2.10187      92.1892 
1.30088e-05      2.34799      98.8241 
0.000182938      5.05973      107.717 
0.000268002      3.75324      106.410 
4.99432e-05      2.36427      98.2664 
0.000485725      1.37204      108.693 
0.000163752      2.89558      95.9499 
8.48760e-05      2.66508      106.118 
4.42526e-05    0.0720098     -56.4755 
8.26895e-05     0.360505     -70.5467 
0.000345384     0.465536      115.491 
7.46911e-05      3.25260      98.1301 
0.000357868      1.93382      100.734 
0.000247258      4.00710      104.455 
0.000117255     0.660356      35.0987 
0.000401097      3.62654      86.5242 
0.000462759      1.32947      77.8465 
0.000286542      2.38152      97.7139 
0.000161512      3.37738      95.7765 
8.40496e-05      3.00068      101.540 
0.000283974      3.92306      110.279 
0.000103318      2.27521      102.689 
0.000110702      4.24087      102.529 
0.000233510      2.76941      100.823 
0.000366115      5.05382      107.507 
7.30541e-05      3.72223      98.6496 
0.000112924     0.256296      128.581 
3.33335e-05      2.65136      106.660 
0.000151155      2.17997      89.4675 
0.000180331     0.459977     -34.3641 
0.000352009     0.178866     -153.327 
2.19434e-05      1.07726      21.7940 
0.000109191      3.82965      112.414 
0.000420917      2.65702      107.063 
0.000399084      1.04321      102.167 
0.000344820      2.51877      110.454 
0.000311566      4.23652      102.261 
0.000158090      1.08817      20.4219 
0.000113704      4.56239      102.143 
0.000164034      1.91392      100.847 
3.00633e-05     0.940038      113.823 
6.43940e-05      1.54189      92.9849 
1.97070e-05      2.72902      94.6210 
1.90207e-05     0.860287      72.4343 
3.44438e-05     0.447333      63.3920 
7.38028e-05     0.921540      114.332 
4.33430e-05      1.02293      4.50186 
0.000271372      2.72752      94.2125 
8.15779e-05      3.39483      95.4031 
0.000133652      1.56212      92.9462 
0.000113785      1.60135      105.938 
0.000127702      2.98482      101.985 
0.000111069     0.325575      47.5220 
0.000108034      3.80321      112.249 
8.43725e-05      3.71935      98.3524 
6.66237e-05      1.74195      74.6886 
0.000306762      2.20049      88.9644 
0.000594316      3.64804      86.2259 
2.46224e-05     0.891319      99.0579 
0.000122778      1.76578      103.091 
4.63163e-05     0.866617      71.1571 
4.22667e-05     0.903799      114.842 
0.000426520     0.474259      117.619 
0.000305328      3.39305      95.0751 
0.000192610      4.57330      101.605 
8.80283e-05      1.99645      79.0364 
0.000197316     0.885454      115.392 
3.05655e-05      2.91574      95.9087 
3.04195e-05      2.39908      97.1873 
0.000409057      5.02914      107.354 
0.000131691      3.73939      106.784 
3.16504e-05      3.75880      106.695 
0.000128758      1.74741      74.0478 
0.000234634      4.77539      108.811 
0.000358677     0.197181     -155.971 
0.000158970      1.09540      21.4151 
4.89951e-05     0.429314      62.1808 
0.000336319     0.466502     -30.9796 
2.02849e-05      1.04313      4.41451 
1.39220e-05     0.944023      36.3689 
6.74276e-05      2.91372      95.5124 
6.05792e-05      1.56324      93.6604 
4.35325e-05      1.59433      107.531 
8.76120e-05     0.956176      37.3465 
1.92178e-05     0.310934      45.0000 
1.27086e-05      4.55956      104.224 
8.84677e-05      3.73652      97.9999 
8.09358e-05      1.44499      94.7661 
0.000176617      2.01634      79.1459 
8.52566e-05      3.81093      112.530 
6.29309e-06      1.05916      100.904 
6.26497e-06      3.47872      108.435 
0.000196659      4.24810      101.679 
0.000142245      3.45950      108.541 
0.000164948     0.873371      69.8991 
4.89222e-05     0.339586      45.0000 
0.000144412      2.34048      88.5303 
6.72384e-05      4.55063      104.770 
1.18229e-05     0.867194      115.966 
5.94119e-06      1.10170      3.12355 
0.000120943      2.40160      97.6491 
0.000158394      3.99243      104.799 
7.53844e-05     0.894329      116.565 
4.03592e-05      2.98909      102.365 
7.23524e-05      2.12069      91.6221 
0.000226675     0.205897     -151.006 
7.31604e-05      1.32535      78.7028 
0.000167613      2.70883      94.6556 
1.68999e-05      1.14053      1.99832 
5.61942e-06      1.58761      109.120 
0.000232310     0.388092     -78.0600 
3.59658e-05      1.59436      109.808 
0.000230631      1.14142      3.01477 
0.000183084      1.77158      73.6146 
0.000133600      2.96174      106.470 
3.16608e-05     0.888355      97.7673 
5.53103e-05     0.761484      76.3198 
8.11507e-05      1.58346      93.6136 
4.24801e-05      3.67712      110.698 
9.24458e-05      1.15628      30.1092 
0.000106863      2.52565      110.869 
6.60043e-05      4.56927      101.356 
9.41686e-06      1.04767      13.2499 
6.95476e-05     0.228306      142.075 
0.000180575     0.876255      117.158 
2.05903e-05      3.91836      110.937 
-0.000379319      2.25406      117.478 
2.21795e-05      1.58211      110.721 
2.60465e-05     0.325575      42.4780 
0.000181116     0.483985      119.745 
0.000274717      2.50673      111.034 
2.03790e-05     0.438758      59.9270 
2.06398e-05      3.41323      95.0450 
7.56855e-05      1.42480      94.8338 
1.59021e-05      1.58939      111.405 
4.17753e-06      3.23255      98.1809 
-7.59414e-05     0.608228     -43.7003 
9.75797e-05      2.14381      81.4246 
7.80609e-06      1.36029      109.764 
1.14956e-05      3.24980      97.7765 
5.63547e-05      1.37867      109.490 
-9.22592e-05     0.609552     -41.0068 
3.80977e-06     0.971758      36.6487 
3.30445e-05      3.47134      94.6248 
3.94452e-05      2.12136      92.1691 
3.57171e-05      4.55583      105.016 
0.000168479      3.64937      85.9203 
2.79919e-05     0.601626      86.2097 
1.05431e-05      3.73376      97.6920 
0.000112009      1.57883      112.348 
4.57090e-05      1.18335      30.4840 
-0.000154420     0.627636     -37.2261 
1.99765e-05      4.56546      101.116 
4.67355e-05      3.93013      110.556 
1.04586e-05      2.87439      111.213 
-0.000189319      5.31956      109.317 
2.02602e-05     0.215843     -158.162 
8.01531e-05      3.21370      84.6408 
0.000202935     0.483985     -29.7449 
-0.000116175     0.594276     -45.0000 
3.10792e-05      2.27100      102.208 
-0.000141279     0.781960     -4.40292 
5.87479e-05      2.97004      102.446 
-2.30187e-05     0.802162     -4.29183 
4.78754e-05      3.65887      110.806 
2.48346e-05      3.44683      108.967 
-0.000264980     0.262662     -98.7088 
6.21343e-05      4.24404      101.411 
4.72880e-05      1.60293      93.5696 
3.14547e-05     0.404436     -81.4640 
6.19508e-06      2.32097      88.5179 
-6.45104e-05      4.37289      110.344 
0.000104748      5.25093      107.052 
0.000145076     0.401929     -84.3213 
-7.40933e-05      1.80147      112.870 
-0.000105375      1.56188      71.3387 
1.40818e-05     0.297458      42.3417 
1.67569e-05     0.493955      121.710 
8.31583e-06      1.06740      13.0007 
2.79865e-06      1.19336      31.2912 
1.10372e-05      2.71055      95.0824 
-8.17144e-06      2.58108      88.2174 
-5.43556e-06      1.98278      87.1149 
2.71688e-06      2.20023      89.4724 
-0.00109211      9.66194     -84.6569 
-0.000673508      4.25937     -78.8979 
-0.000484953      10.4353     -166.815 
0.000394974      5.00927      49.6966 
0.000106208      6.80510     -31.5413 
-0.000156716      9.96570     -4.14525 
0.000331988      2.68713     -134.389 
0.000375930      4.24864      158.751 
0.000332645      8.18421      129.449 
-0.000288353      9.59413     -148.728 
0.000528792      6.78848     -31.6274 
-0.000323369      10.0463      105.945 
0.000309993      7.69943     -146.762 
-0.000491720      8.62249      175.878 
-0.000312010      9.98590     -4.13684 
-0.000233685      6.30489     -84.9062 
0.000305982      8.28291      66.2193 
0.000526712      10.9985      22.7880 
-0.000253381      6.51415      149.974 
0.000341879      11.0967      37.5324 
-0.000255577      6.78566      73.9180 
4.64674e-05      9.72704      168.736 
0.000214213      6.27001     -27.1354 
-0.000215959      7.63629     -76.9839 
0.000211056      7.96240     -156.460 
-0.000291330      4.01650      95.1450 
0.000295543      7.33796      162.553 
-0.000294746      10.9821     -128.792 
-0.000249067      5.65248     -121.101 
0.000376799      7.68953     -20.5554 
-0.000131936      4.21266     -116.204 
0.000169402      8.44451     -11.3359 
0.000292707      11.5897      149.051 
8.74661e-05      6.26114     -26.9766 
0.000303552      6.81514     -156.297 
0.000206642      13.8594     -134.882 
0.000126775      11.5490     -121.183 
0.000242810      11.2297     -34.9920 
-0.000163017      9.60033     -148.892 
0.000241218      9.11575     -49.0053 
-0.000202096      6.80750     -102.730 
0.000161798      5.02417      49.8405 
0.000162738      7.58640      87.5850 
0.000121218      6.70708      156.263 
-0.000121450      11.2576     -120.300 
0.000120094      5.72192     -88.5948 
0.000201756      10.5473     -15.1693 
-0.000239750      6.53169      150.062 
0.000159811      10.1165     -41.4758 
-8.03098e-05      11.2025      55.0325 
-0.000121520      10.9488      21.8780 
0.000160135      4.44206     -46.4579 
-4.14682e-05      6.00197      116.309 
0.000158305      9.77735      157.001 
4.12448e-05      4.26753      158.850 
-8.05732e-05      9.64368     -84.5259 
-0.000119329      4.23085     -116.083 
7.99821e-05      10.9130      117.268 
-0.000119605      9.17607      147.279 
-8.09609e-05      5.16954      51.7610 
-4.06241e-05      2.34477      61.4583 
-0.000118150      8.45103     -22.9862 
-7.86259e-05      3.29184      62.4945 
7.81213e-05      4.10617     -149.564 
-4.03060e-05      7.26659      98.8690 
4.02147e-05      5.28815     -72.3904 
-0.000117279      9.27048     -29.6091 
0.000116278      9.74908     -140.660 
7.81428e-05      9.61560     -114.059 
7.78220e-05      7.14220     -91.4449 
0.000116054      8.74008      40.3617 
-0.000116015      8.62111      176.007 
0.000111307      13.8456     -134.824 
7.66225e-05      10.0705     -118.857 
-7.77479e-05      7.26962      99.0209 
-3.91421e-05      12.5169     -140.510 
-7.68201e-05      8.84357      91.5559 
-3.90701e-05      7.99693     -140.380 
3.89437e-05      2.93499     -130.863 
7.66859e-05      11.5389     -121.101 
-3.87928e-05      10.6105     -148.020 
3.86995e-05      5.89452      64.0449 
7.62026e-05      7.27304     -161.565 
7.66326e-05      9.20875     -12.8007 
3.83955e-05      8.96989     -34.1886 
-7.61788e-05      5.18211      51.5851 
3.83676e-05      9.51757     -159.586 
-7.56708e-05      11.1727      117.391 
-3.82291e-05      8.91255      85.1074 
7.59486e-05      10.5526     -15.2755 
-3.81906e-05      3.11197     -162.037 
3.79586e-05      6.29729     -27.2154 
-3.79500e-05      2.35416      61.0412 
3.78827e-05      13.3190     -42.6255 
