! Center RA: 12 21 31.69052,  Dec: +28 13 58.50022 (2000.0)
! Established model.
! Flux (Jy) Radius (mas)  Theta (deg)  Major FWHM (mas)  Axial ratio   Phi (deg) T \
! Freq (Hz)     SpecIndex
  0.104113    0.0202604      0.00000 
 0.0564779    0.0397705      0.00000 
 0.0292130    0.0446338     -26.9958 
0.00848265    0.0848966      45.0000 
0.00469697    0.0286526     -45.0000 
0.00174897     0.100252      53.2159 
0.00284463     0.113549      45.0000 
0.000939234     0.128090      51.1829 
0.000932608     0.262662      98.7088 
 0.0166975     0.116465      58.9729 
0.00336465     0.260423      94.4620 
0.00870788     0.259634      90.0000 
 0.0166849     0.134233      63.4349 
0.00101613     0.144435      56.2274 
0.00546726     0.260423      85.5380 
0.00860406    0.0720098     -33.5245 
0.00363497     0.280627      85.8598 
0.00628330     0.107434      68.2729 
0.00392270     0.282706      81.9129 
0.00412412    0.0562440     -45.0000 
0.00148082     0.360755      93.2195 
0.000475179     0.262662      81.2912 
0.00232611     0.100252     -36.7841 
0.000477395     0.266484      76.9812 
0.00411333     0.380236      93.0544 
0.000671330     0.240977      94.8229 
0.00478930    0.0848966     -45.0000 
0.000775140     0.220795      95.2649 
0.00395326     0.223431      100.253 
0.000409804     0.253192      71.5114 
0.000382130     0.260038      67.4310 
0.00100090     0.268467      63.4349 
0.000694976     0.379696      90.0000 
0.000481007    0.0446338      153.004 
0.000167306     0.400469      92.8999 
0.00363972     0.399956      90.0000 
0.000872451     0.128090     -38.8171 
0.00163338     0.247514      104.036 
0.000571657     0.278118      59.6991 
0.000828356    0.0633577      161.350 
0.000139218     0.227911      105.272 
0.00160647     0.113549     -45.0000 
0.000383460     0.271820      53.9843 
0.000360829    0.0828082      165.838 
0.000122083    0.0600310      180.000 
0.000326731     0.288454      56.3513 
0.000774136     0.253192      108.489 
0.000555623     0.284207      50.6787 
0.00119056     0.420217      90.0000 
0.000334221    0.0802914      180.000 
0.000524588     0.156126     -39.7351 
0.000108097     0.612198      101.310 
0.000824266     0.101837      168.524 
0.00168471     0.184676      40.5508 
0.000724734     0.635505      102.756 
0.000207935    0.0998015      180.000 
0.000100789     0.121759      170.422 
9.97948e-05     0.101837      78.5245 
0.00287741    0.0633577     -71.3505 
0.00358402    0.0397705     -90.0000 
0.000291378     0.243395      99.4042 
0.000608663     0.404436      81.4640 
0.000684975     0.588572      99.7625 
0.00189871     0.384412      81.0157 
0.00239663     0.585580      97.8809 
0.000418824    0.0720098     -56.4755 
0.00201943     0.608549      99.4391 
0.000586118     0.172194      35.4216 
0.00175312     0.156126      39.7351 
8.70124e-05     0.313099      63.3735 
8.29789e-05     0.315980      55.2532 
0.00124180     0.401929      84.3213 
0.000441130     0.312731      50.1592 
7.85615e-05     0.381773      84.0205 
0.000282301     0.627803      99.1471 
0.00255936     0.972963      99.4551 
0.000134402     0.100252     -53.2159 
0.000266218     0.742542      104.036 
0.000129361     0.310934      45.0000 
0.000129380     0.240790     -41.5891 
0.000188859     0.766529      105.152 
0.000531584     0.269397     -41.9516 
0.000604111     0.325575      42.4780 
0.000625030     0.761484      103.680 
0.000674665     0.898473      110.842 
0.000374419     0.215843      111.838 
0.000270349     0.126477      161.673 
0.00146144     0.283342     -45.0000 
0.000299530     0.161670      29.7779 
0.000504222     0.969949      98.3182 
0.000712696      2.32906      110.619 
0.000580687     0.145849      164.176 
0.000344573     0.924690      111.568 
0.000958052      3.89039      109.833 
4.82078e-05      2.02164      92.2762 
0.000186946      2.02093      91.7022 
4.74507e-05      2.24752      106.008 
0.000450146     0.223834      116.479 
0.000175167      2.26628      105.872 
0.000222106     0.178866      26.6725 
0.000887834     0.340220      40.2586 
0.000573828     0.932329      112.726 
0.000177961      1.96130      106.584 
4.52675e-05      2.17796      103.265 
0.000917211      2.00018      91.1393 
0.000120625     0.422095      84.5935 
0.00168549      8.87898      110.434 
0.000999711      1.18985      114.836 
8.17706e-05      2.26102      105.397 
0.000279832      2.36967      111.805 
0.000430104      1.93708      106.195 
0.00111925      3.26577      118.131 
8.16916e-05      2.15897      103.384 
0.000157286     0.197181      24.0289 
3.89564e-05      2.27023      104.275 
0.000198013      7.00407      110.037 
7.61703e-05      2.16375      103.906 
0.000320021      7.01104      110.192 
0.000145353      2.27975      103.185 
0.000214437      2.40274      112.513 
0.000319785      2.27521      102.689 
3.67751e-05     0.170734      159.414 
0.000276591      2.14409      104.036 
0.000129751     0.215843      21.8384 
7.03698e-05      2.43969      100.384 
0.000562883     0.189835      161.565 
0.00148895      2.76870      98.3058 
0.00104139      2.10365      118.997 
0.000225985     0.940038      113.823 
0.000863870      6.80528      108.862 
0.000292910      2.94360      117.956 
0.000328716     0.310934     -45.0000 
0.000995943      2.29498      102.578 
0.000302216      2.14909      104.560 
8.81032e-05      2.43686      113.194 
0.000816385      6.58992      108.214 
0.000190683     0.233573      120.932 
0.000943203      1.39737      99.0526 
6.02585e-05     0.756949      102.190 
8.83574e-05     0.958607      113.334 
0.000459724      6.81359      102.201 
0.000810935      1.99988      90.5805 
0.000346844      5.45517      119.665 
0.000815976      5.46522      119.849 
0.000113643      1.94261      106.748 
0.000430023      4.17358      100.766 
0.000309932     0.966811      114.437 
2.87685e-05      2.45621      99.8508 
0.000566213      5.61009      115.105 
0.000712592      6.33446      101.840 
8.39351e-05      3.25662      117.829 
0.000359432     0.234065      20.0616 
5.55690e-05     0.776764      101.874 
0.000514178      9.56776      127.015 
0.000632327      2.12949      104.697 
5.41436e-05      3.19769      102.647 
0.00148611      2.92908      146.420 
0.000536841      1.19850      115.715 
0.000415053      7.03635      110.292 
2.73316e-05      3.88357      109.552 
0.000213934      2.45283      99.3845 
2.71111e-05      3.24721      117.512 
0.000628700      6.18551      114.245 
7.73016e-05      3.21181      115.446 
0.000475983      1.96718      107.149 
7.70969e-05     0.772985      100.459 
5.25234e-05      3.21992      116.565 
0.000168276      3.56655      102.627 
0.000566442      1.17217      115.236 
4.95060e-05      2.28954      107.805 
0.000279791      2.95315      118.304 
0.000828861      6.62739      102.902 
0.000444524      3.21091      116.242 
0.000168348      5.29203      113.854 
0.000158376     0.297458     -47.6583 
0.000262918      3.59005      102.874 
4.78373e-05     0.933756      99.8559 
0.00101394      9.55558      126.918 
0.000249979     0.209153      163.320 
4.68295e-05     0.792179      100.203 
0.000202681      6.49050      99.5767 
0.000371647      6.81790      102.367 
6.35398e-05      2.28343      107.321 
0.000429702      5.82243      116.301 
0.000308403     0.788842      98.7544 
0.000105328     0.975367      115.520 
0.000425110      5.30026      114.054 
4.29047e-05     0.937436      101.076 
0.000327031      4.17742      101.039 
0.000361835      5.16254      121.532 
0.000170097      2.12444      104.169 
0.000290809      2.96245      118.636 
9.88073e-05      2.44960      98.9170 
0.000400736     0.312731     -50.1592 
9.02346e-05     0.983930      116.546 
8.33230e-05     0.917561      101.319 
0.000470940      9.28584      125.710 
1.90511e-05      2.08596      119.267 
3.66772e-05      4.19730      100.987 
8.58143e-05      3.20233      115.929 
0.000248698      2.09593      119.750 
0.000266992      6.60917      108.159 
0.000139790      1.99256      107.534 
8.88790e-05      4.32611      108.602 
5.37895e-05      2.34952      120.710 
0.000237573      3.35069      124.544 
6.58065e-05      2.29135      106.221 
3.53763e-05      3.20316      115.118 
4.68243e-05      3.56234      102.321 
0.000485494      4.47142      124.615 
0.000351465      3.58560      102.559 
0.000154627      6.21254      107.032 
0.000181209      6.48729      99.4068 
9.67688e-05      2.33962      120.299 
0.000123412      3.21264      114.655 
0.000357814      5.80495      116.386 
6.47931e-05      4.35179      108.769 
0.000104528     0.227911      164.728 
0.000107940     0.808873      98.5360 
0.000225424      2.88413      146.310 
0.000219264      4.20121      101.258 
7.66671e-05     0.993150      117.591 
0.000190956      1.42066      99.7310 
0.000103452      6.94825      105.356 
8.69158e-05      2.97221      118.979 
0.000175247      1.98655      106.977 
0.000116568      6.33049      101.667 
0.000244945      5.17316      121.723 
0.000206893      3.33924      124.258 
3.11616e-05      2.76237      145.615 
0.000101932      4.34532      108.516 
0.000212614      2.74629      145.385 
0.000141454      1.99978      90.0000 
8.42186e-05     0.786014      97.2946 
1.48797e-05     0.355922      38.1504 
1.47970e-05      2.11056      117.048 
0.000152213      9.27403      125.609 
0.000110365      2.11990      116.329 
9.67654e-05      6.82210      102.527 
6.82319e-05      1.00269      118.617 
9.50681e-05      5.63108      112.560 
2.75250e-05      7.06213      110.384 
1.39512e-05      5.60152      114.917 
9.39442e-05      3.35600      124.063 
2.70951e-05      2.10606      120.229 
2.67839e-05      3.20425      114.326 
2.68493e-05      4.37027      108.687 
2.68628e-05      6.20685      106.860 
1.31186e-05      4.36382      108.435 
0.00150241      4.10241      66.4312 
0.00101094      9.85017      25.3684 
0.000300456      9.86781      25.3199 
-0.00134066      8.77567      33.9428 
-0.000377265      8.68861     -36.1049 
0.000703054      4.22251      1.90440 
-0.00125674      11.2530      144.839 
-0.000441038      8.99251     -37.2275 
0.000892144      8.94876      149.364 
-0.000436968      12.3597      145.615 
0.000421995      10.0067      34.1655 
-0.000410959      4.81780     -167.286 
0.000176682      9.48917      73.9700 
-0.000177227      9.53445      43.6415 
0.00112710      9.49458      73.8568 
0.000339030      6.26551      44.6118 
0.000338054      12.0205      148.054 
0.000715129      5.51985      180.000 
-0.000770899      9.67416      151.473 
-0.000982646      11.0728      128.545 
-0.000455255      8.70498     -36.0263 
-0.000600196      9.52034      43.7226 
0.000314279      2.05200      77.0462 
0.000741556      9.19564      77.5640 
-0.00103024      11.1829     -25.4199 
0.000151175      4.20226      1.91358 
0.000300644      7.44521      15.9049 
-0.000301411      10.7467      150.575 
-0.000591979      11.0842      119.154 
0.000446645      10.8515     -38.9401 
0.000376645      11.0965     -114.716 
0.000151018      3.98137     -154.729 
-0.000579320      12.5293      47.6506 
-0.000440216      5.43759      96.7602 
0.000514017      5.53424      108.106 
0.000368995      3.22943     -54.8291 
-7.95365e-05      9.29886      155.474 
-0.000155648      5.74465     -37.7890 
0.000599976      7.81213      55.0093 
-0.000359284      10.8663      121.142 
0.000576190      10.2885      52.6612 
0.000151414      6.25130      44.4796 
-7.75605e-05      5.75709     -37.9483 
-7.72035e-05      12.3483      145.693 
0.000433827      11.2147     -151.331 
-0.000431695      10.0801    -0.341220 
0.000144304      11.3798     -143.432 
-0.000145507      10.3712     -122.156 
-0.000284523      9.28111      155.424 
0.000353655      11.5597      146.145 
0.000283057      9.66408      52.8196 
7.56102e-05      12.0481      148.026 
7.54148e-05      8.96619      149.430 
-0.000281277      9.03425      16.9901 
-0.000355213      8.49627     -121.032 
-0.000221703      11.0941      119.245 
0.000211503      2.03767      76.3680 
-0.000280269      10.4200      74.0710 
-0.000218536      5.77308     -37.8247 
7.43854e-05      3.69208     -43.9048 
-7.38411e-05      12.8603     -46.5746 
-0.000213715      3.40290     -92.3633 
0.000211852      5.75729     -139.223 
0.000212348      5.75123     -63.3480 
0.000278783      13.2327      49.3532 
-0.000275767      7.17027      171.981 
0.000205553      10.1080      34.5997 
-0.000138549      12.8464     -46.6402 
-0.000137825      13.5598      48.5289 
-0.000136979      4.91534     -124.721 
0.000202915      8.34841      166.565 
0.000137680      9.31273     -175.198 
-0.000205647      5.76068     -37.6655 
0.000136463      5.91524     -175.926 
-0.000201809      10.8767      155.790 
6.90041e-05      9.31457      68.0597 
6.88780e-05      10.0824     -105.413 
0.000133949      4.51493      137.330 
6.82339e-05      9.80470      117.716 
-0.000134372      8.75887      34.0168 
-6.78463e-05      11.2643      144.758 
0.000133282      7.01475      76.4766 
-6.74613e-05      10.8750     -113.406 
6.74767e-05      9.25009      100.337 
-6.70600e-05      3.42314     -92.3493 
6.68598e-05      6.92901      96.7979 
-6.67315e-05      10.7567      150.481 
-6.63801e-05      3.49299     -135.235 
6.62510e-05      11.1976     -151.283 
6.62178e-05      9.21000     -175.392 
-6.61315e-05      10.9941     -157.541 
-6.61284e-05      9.25226      33.4478 
6.61843e-05      5.74251     -63.5220 
6.58767e-05      3.20482     -51.8367 
-6.55981e-05      7.57267      104.842 
6.55692e-05      6.26524      44.3546 
-6.55446e-05      9.26369     -33.1069 
0.000258145      1.51650     -131.269 
-0.000895131      9.97676     -176.667 
0.000619507      1.51863     -130.190 
-8.73436e-05      4.33410      11.9811 
-0.000393100      10.0256     -4.12045 
-0.000504851      6.02783     -92.8542 
0.000247517      5.67958     -63.8818 
-0.000160086      4.31502      12.0349 
-8.09907e-05      4.15295      9.14916 
-7.77510e-05      4.17295      9.10493 
0.000572323      5.68820     -63.7054 
0.000341470      7.83594      152.647 
0.000583741      8.39010     -150.746 
-0.000337461      6.04411     -20.5319 
-0.000429042      11.3897      52.2045 
-0.000551333      9.58808      18.3612 
0.000518553      7.88034      53.5655 
-0.000330374      4.58937      131.819 
0.000143532      8.39957      6.83932 
-7.27198e-05      10.8151     -71.2281 
-0.000141562      12.2176      49.7132 
7.26143e-05      9.51638      3.37230 
-0.000381626      9.34370      10.7333 
-7.11734e-05      8.89257      18.3509 
-7.04981e-05      4.33009      11.7286 
0.000596129      9.53548      3.24811 
-0.000261703      10.0409      37.5550 
-0.000193558      8.91109      18.3114 
-0.000130412      6.13718     -23.2234 
0.000516901      7.97127      6.48076 
-0.000130230      10.8214     -71.1303 
0.000189844      7.81956      25.1215 
-0.000189210      12.1069     -45.8011 
-6.60920e-05      4.17943      9.64328 
-0.000294643      12.2307      49.6408 
0.000122713      8.43743      6.66995 
6.43421e-05      11.9360     -135.135 
-0.000172666      10.0061     -4.12848 
-0.000603040      13.4535      131.989 
-0.000235241      5.02885      158.538 
-6.28120e-05      4.18628      10.1799 
0.000121326      11.9365     -135.000 
0.000660208      7.26664      14.3433 
-0.000114350      5.74377      143.211 
-6.10274e-05      5.61501     -45.4331 
0.000117694      8.72975     -153.025 
-0.000381421      9.20237      1.36904 
-0.000221844      4.20909      10.4044 
0.000106282      7.95114      6.49724 
-0.000165672      10.0248      37.6256 
0.000209892      9.71713     -45.9167 
-0.000163548      4.61535     -116.236 
0.000156879      9.79456     -106.733 
5.75379e-05      9.28328      128.350 
0.000164873      7.84492      152.521 
-0.000110078      6.65094     -16.4169 
0.000374055      11.9221     -135.069 
-5.67766e-05      9.07229      16.9167 
0.000340139      4.64314      92.2229 
5.65439e-05      7.31284      46.2182 
-5.64149e-05      6.11058     -23.1238 
-0.000375542      12.1350     -45.8017 
-5.63567e-05      5.64260     -45.4310 
0.000107163      6.03074      15.1913 
-0.000389448      3.31778      166.049 
-0.000310126      9.60731      18.3232 
-5.57343e-05      5.93713     -96.3858 
0.000350457      9.25483      128.330 
0.000148100      8.74781     -153.085 
-0.000142476      5.32712      79.6208 
-0.000338110      12.9024     -46.5082 
0.000390283      9.80042     -106.846 
0.000142516      8.33185     -148.449 
-0.000105598      11.4947     -141.217 
-0.000153134      10.8279     -71.0289 
0.000542907      8.37243     -150.678 
0.000200629      10.7012      151.900 
-5.30767e-05      13.0614      131.646 
-0.000101464      4.57588      131.630 
0.000102604      1.53178     -130.769 
0.000147691      7.29936      46.3287 
-0.000363556      11.0326      134.118 
-0.000264470      8.97387     -104.192 
-5.13970e-05      5.93933     -96.5728 
0.000246111      8.54546     -43.2921 
-0.000224537      13.0485      131.582 
-0.000243197      9.62583      18.2866 
-0.000440369      8.13680      58.2623 
-0.000467286      9.99699     -176.674 
-0.000292754      5.04701      158.619 
5.03856e-05      8.32166     -148.563 
8.61241e-05      6.52568      84.9004 
-0.000262952      12.2851      49.4887 
-9.84984e-05      10.9380      139.524 
-0.000257962      11.5099     -141.278 
9.85449e-05      8.17025     -94.9157 
-0.000526002      10.9129     -52.5210 
-0.000231705      13.1315      140.002 
0.000407724      10.4982      13.2138 
-9.55459e-05      9.06645     -84.1762 
4.87304e-05      6.76169     -178.811 
-4.86998e-05      5.83262     -23.2238 
-0.000138944      13.4292     -136.993 
-9.43033e-05      6.20050     -89.0777 
0.000215200      12.5866      134.742 
-0.000214001      10.0094      37.6938 
-8.79469e-05      9.32380      10.7565 
0.000767844      10.6566      151.896 
-0.000130719      4.62401     -116.453 
0.000294733      1.53416     -129.702 
8.94667e-05      7.82762      152.455 
-0.000147078      10.5575      115.108 
-4.71173e-05      4.18991      10.4526 
-4.69156e-05      5.76001      143.332 
0.000558077      8.15006     -94.9279 
-4.66976e-05      9.43053      156.372 
-4.67005e-05      7.79454      124.544 
-0.000113416      9.16017     -179.625 
-0.000411914      9.64507      18.2489 
-8.88869e-05      5.95871     -96.5513 
0.000131403      7.78057     -51.1581 
-0.000291921      8.96893     -104.066 
-8.81723e-05      10.5822     -152.659 
-0.000207247      10.9094      139.536 
-4.55410e-05      12.1640      49.8695 
0.000127914      6.77324     -170.479 
0.000235304      6.74648      84.8950 
0.000123741      9.26740      128.428 
-0.000128040      9.45722      156.309 
0.000395258      8.33345      166.397 
0.000166337      10.6745      151.947 
-0.000301602      10.8459     -66.4110 
-4.45155e-05      5.85124     -23.1455 
4.43042e-05      8.92911      58.0890 
-4.40763e-05      7.88735      72.4356 
-0.000122364      10.6708      107.449 
4.38896e-05      7.37114     -105.584 
-4.40522e-05      4.19349      10.7148 
-8.56352e-05      12.9404     -45.1879 
-0.000350638      13.2741      41.6405 
-0.000278408      9.16006     -179.751 
-4.32000e-05      10.8345     -70.9276 
-0.000333691      3.49437     -136.627 
8.32721e-05      6.54586      84.9162 
0.000158304      11.9078     -135.000 
0.000219399      9.27640     -23.9131 
-4.23269e-05      9.04704     -84.1636 
-0.000377578      10.1627      93.8357 
-0.000120615      12.2978      49.4196 
4.20495e-05      6.65591      128.900 
0.000185164      8.30257     -106.514 
-0.000212263      8.79186      33.8718 
0.000155467      7.95346      6.64225 
-0.000842688      13.1596      139.994 
-0.00116643      14.3125     -135.680 
0.000116529      7.82376      54.8878 
-4.12182e-05      13.4435     -137.049 
-8.01870e-05      9.26582      119.056 
-0.000116697      12.8737     -46.5115 
