! Center RA: 12 21 31.69052,  Dec: +28 13 58.50011 (2000.0)
! Established model.
! Flux (Jy) Radius (mas)  Theta (deg)  Major FWHM (mas)  Axial ratio   Phi (deg) T \
! Freq (Hz)     SpecIndex
 0.0396384    0.0202604     -90.0000 
 0.0649014    0.0286526     -135.000 
 0.0394231      0.00000      0.00000 
 0.0105939    0.0633577      71.3505 
 0.0235173    0.0446338     -116.996 
 0.0253165    0.0828082      75.8378 
 0.0275025    0.0633577     -108.650 
 0.0300708     0.271765      107.184 
 0.0314499    0.0998015      90.0000 
0.00201942    0.0802914      90.0000 
 0.0130138     0.291183      106.006 
0.00601277    0.0397705     -90.0000 
 0.0164040    0.0600310     -90.0000 
 0.0139077     0.101837      101.476 
0.00354077     0.297155      109.625 
0.00374012     0.145849      105.824 
0.00160800     0.316312      108.392 
0.00370322     0.126477      108.327 
0.000857050     0.360505      109.453 
0.00379725    0.0286526     -45.0000 
0.00253866     0.379669      108.435 
0.00604339     0.253192      108.489 
0.00756869     0.404795      110.283 
0.000559947     0.398226      107.547 
0.00307032     0.423858      109.333 
0.000392066     0.437032      105.945 
0.00113917     0.443026      108.466 
0.00205494     0.538618      105.101 
0.000860133    0.0446338     -63.0042 
0.00161147     0.563425      106.480 
0.00209721     0.582160      105.935 
0.00171274     0.698386      103.230 
0.000154453     0.714035      101.334 
0.00173505     0.718124      102.860 
0.00309959     0.733911      101.023 
0.000896074     0.121759      99.5784 
0.000267646     0.495028      104.036 
0.000551729     0.607364      107.248 
0.00157117     0.753070      100.739 
0.00357816     0.664933      105.714 
0.000450268     0.769565      98.9755 
0.000133672     0.788842      98.7544 
0.000936997     0.851327      99.4872 
0.000119315     0.626742      106.699 
0.000925411     0.513977      103.509 
0.00105868     0.871317      99.2676 
0.00180464     0.894598      100.292 
0.000435347     0.645453      106.202 
0.000544135     0.490508      101.740 
0.00176127     0.386554      111.285 
0.00223753     0.509625      101.293 
0.00205260     0.170734      110.586 
0.000685303     0.247514      104.036 
0.00412946    0.0802914     -90.0000 
0.000622930     0.913801      100.073 
0.00291099    0.0720098      56.4755 
0.000841696     0.917561      101.319 
0.00114874     0.937436      101.076 
0.000116537     0.486913      99.4914 
0.000856410     0.772985      100.459 
0.000342397     0.266484      103.019 
0.000213955     0.957327      100.843 
5.46420e-05     0.792179      100.203 
0.000206017     0.878599      101.828 
0.000559343     0.506166      99.1272 
0.000712100     0.980435      101.792 
0.000552897     0.858779      102.105 
0.000200203     0.684458      105.255 
4.64269e-05     0.545983      113.747 
0.000211302     0.554452      115.663 
8.56881e-05     0.400469      87.1001 
0.00206074     0.101837     -101.476 
0.00100387      1.00028      101.554 
8.11874e-05     0.381773      84.0205 
0.000506197     0.526180      98.7772 
0.000613459     0.863255      103.420 
0.000282668     0.384412      81.0157 
0.000325752     0.563176      117.453 
7.29013e-05     0.503350      96.8496 
0.000101793     0.411965      112.829 
0.000131950     0.749560      99.2171 
6.78846e-05     0.367749      112.431 
0.000384449     0.572799      119.251 
0.000235530     0.523472      96.5851 
8.63205e-05     0.388092      78.0600 
6.36403e-05     0.373757      74.5128 
6.30764e-05     0.394056      113.929 
9.18742e-05      1.02414      102.397 
0.000672545     0.215843      111.838 
0.000389582     0.362375      83.6991 
4.60486e-05     0.549419      100.466 
0.000129666     0.529508      100.864 
0.000628019     0.197181      114.029 
0.000294862     0.882975      103.115 
8.61331e-05    0.0446338      26.9958 
0.000285143     0.703300      104.837 
0.000684223    0.0397705      0.00000 
0.000195894     0.887605      104.342 
7.83405e-05     0.572781      114.786 
3.94985e-05     0.342244      83.3269 
0.000101603     0.365154      80.5377 
0.000313633     0.345185      79.9848 
0.000438643     0.907248      104.025 
3.74927e-05     0.581230      116.532 
0.000200569     0.501338      94.5500 
0.000100581    0.0633577     -71.3505 
0.000705369      1.02868      103.499 
0.000187242    0.0633577      18.6495 
3.25473e-05     0.722903      104.426 
0.000477205     0.912370      105.259 
0.000529641      1.06740      103.001 
0.000232796     0.500168      92.3215 
8.75756e-05     0.302778      82.4523 
0.000111301     0.892839      105.601 
5.72436e-05     0.325253      79.3641 
0.000217627     0.582967      120.989 
0.000875174      1.18945      106.606 
2.90581e-05     0.401929      84.3213 
0.000447242    0.0720098      33.5245 
2.83005e-05     0.447333      116.608 
2.72951e-05     0.420241      115.375 
0.000221580     0.306099      78.6901 
7.85553e-05     0.600426      119.994 
0.000191901     0.429314      117.819 
0.000173912     0.520413      92.2312 
2.49666e-05     0.422095      84.5935 
2.43033e-05     0.223834      116.479 
0.000409197     0.610413      121.580 
8.89032e-05     0.404436      81.4640 
0.000130529     0.205897      118.994 
4.37957e-05     0.520018      90.0000 
0.000220678     0.898283      106.800 
6.54210e-05     0.540658      92.1476 
0.000213228     0.310708      75.0240 
0.000205354     0.438758      120.073 
0.000171488     0.540279      90.0000 
0.000598703    0.0848966      45.0000 
0.000137808     0.407936      78.6487 
1.91220e-05     0.233573      120.932 
0.000477300      1.21473      107.248 
1.85146e-05     0.271820      126.016 
5.24685e-05     0.300155      126.870 
3.49412e-05     0.898473      110.842 
1.72883e-05     0.593248      122.605 
0.000159182     0.559789      90.0000 
0.000125519     0.895778      113.709 
0.000384686     0.621263      123.172 
0.000151097     0.316312      71.6080 
8.00470e-05     0.312731      129.841 
4.55640e-05     0.766666      97.4798 
6.62323e-05     0.466502      120.980 
1.50975e-05    0.0896014      63.6495 
5.83833e-05     0.325575      132.478 
0.000154089     0.427819      79.1828 
4.27587e-05     0.449253      122.310 
2.87240e-05     0.783776      95.8798 
1.43859e-05     0.764371      96.0296 
5.57751e-05     0.560155      87.9272 
4.21896e-05     0.903799      114.842 
2.75333e-05     0.919974      90.0000 
7.98707e-05     0.339586      135.000 
1.38649e-05     0.781960      94.4029 
1.36312e-05     0.885454      115.392 
1.35534e-05     0.780666      92.9202 
8.89976e-05     0.297155      70.3754 
0.000289020     0.894329      116.565 
1.33653e-05     0.779652      90.0000 
2.62506e-05     0.940453      88.7656 
7.50015e-05     0.580403      87.9995 
0.000167562      1.22065      108.123 
1.31157e-05     0.779915      88.5114 
5.04289e-05     0.780666      87.0798 
6.13757e-05     0.941076      87.5779 
0.000173139      1.20085      119.994 
0.000454829     0.353651      137.236 
1.21840e-05     0.447333      153.392 
0.000113298     0.781960      85.5971 
0.000411377     0.126477     -108.327 
0.000157623     0.457182      156.801 
0.000184674     0.304558      66.7829 
0.000120656     0.476838      122.990 
0.000265230      1.07195      104.017 
0.000107501     0.961621      86.4209 
8.19413e-05     0.581411      86.0777 
2.16056e-05     0.676788      108.957 
0.000138845    0.0896014      26.3505 
1.07497e-05     0.412220      75.9891 
0.000198965      1.23993      107.832 
0.000237636     0.431906      76.6398 
0.000586097      1.21072      120.793 
0.000136576     0.783776      84.1202 
0.000156261     0.983289      85.3162 
2.80629e-05     0.835602      101.027 
9.15846e-05     0.683639      110.563 
9.61449e-06     0.662354      65.0027 
0.000100090     0.632576      124.708 
0.000381822     0.671167      63.4349 
6.12631e-05     0.101837      78.5245 
0.000505443     0.475177      157.728 
5.10115e-05      1.75453      114.241 
0.000121527      1.77302      113.972 
0.000430188     0.876255      117.158 
0.000125393     0.107434      21.7271 
0.000103480     0.493955      121.710 
6.72577e-05     0.839713      102.384 
0.000298440     0.286050      65.1829 
5.60883e-05     0.562998      83.8791 
0.000340438     0.806114      82.8882 
0.000124279      1.74631      113.635 
2.46883e-05     0.583147      84.0913 
0.000134154      1.03341      104.551 
0.000320216      1.26477      108.435 
0.000156861      1.00348      85.4107 
0.000436893     0.134233     -116.565 
7.30419e-05      2.09821      112.410 
7.97916e-05     0.101837      11.4755 
2.03335e-05      1.76489      113.371 
1.36754e-05     0.672002      112.728 
0.000123523      1.94010      104.332 
0.000122249     0.504899      123.666 
2.51233e-05      1.82804      113.208 
0.000124137     0.690733      112.079 
0.000415133      2.55229      113.550 
2.65620e-05     0.120062      90.0000 
0.000201417      2.10602      112.920 
0.000198722      1.72845      113.894 
0.000152971     0.121759      9.57842 
0.000135180      1.74251      99.2433 
6.97324e-05      1.84599      112.969 
1.09517e-05     0.604406      124.223 
4.83713e-05     0.446997      79.6521 
0.000317091      1.00523      84.3022 
6.78770e-05     0.565518      81.8376 
4.95540e-05      1.70175      113.547 
0.000102176      1.93518      103.751 
5.73211e-05     0.844290      103.727 
1.98250e-05      1.87228      113.277 
9.84386e-06      1.61569      111.811 
9.79807e-05      1.93294      114.446 
0.000201835      2.13230      113.191 
0.000185081      1.57883      112.348 
1.79892e-05      1.25851      107.560 
8.95520e-06     0.616029      125.781 
0.000259256      1.73937      98.5845 
8.62269e-06      1.25276      106.709 
7.82807e-05     0.141777      8.21587 
1.23081e-05      1.24709      105.818 
6.73690e-05     0.680086      114.303 
6.89475e-05     0.532403      124.317 
0.000144928      1.22122      121.610 
1.90881e-05      1.24172      104.918 
0.000167637      1.03869      105.633 
3.07779e-05      1.23684      104.045 
4.85390e-05     0.450910      77.2126 
0.000105134     0.278155      68.9736 
1.73069e-05     0.368782      130.627 
0.000156008      1.95020      103.031 
1.94632e-05     0.161111      7.22432 
3.45030e-05      1.23208      103.131 
7.40117e-05     0.181229      6.41879 
1.89694e-05     0.121759      80.4216 
9.87101e-05      1.94141      114.990 
6.01101e-05     0.644048      64.2410 
3.21763e-05      1.22764      102.210 
3.84366e-05     0.808873      81.4640 
-0.000273556    0.0600310      180.000 
4.79352e-05     0.858942      117.752 
3.65594e-05      1.23852      121.119 
2.58201e-05     0.180093      0.00000 
8.03639e-06     0.372066      126.223 
5.34268e-05      2.56045      113.966 
1.99095e-05      1.22366      101.317 
9.35268e-06      2.14036      113.689 
2.61292e-05     0.355922      141.850 
1.36274e-05     0.688672      115.839 
1.84370e-05      1.72035      113.277 
3.45594e-06     0.585580      82.1191 
1.54171e-05      1.24911      121.914 
8.47459e-06     0.404832      122.895 
-6.01540e-05      2.05787      105.785 
-2.60754e-05     0.560155      55.2029 
3.31644e-06     0.560155      124.797 
-2.42474e-05     0.600426      150.006 
6.37594e-06      1.26571      121.447 
0.000446934      7.58020     -73.2872 
-0.000589894      4.69277      33.3496 
0.000461205      2.21302     -119.808 
0.000199883      9.01634      3.43534 
0.000390487      11.1890     -149.495 
-0.000100183      10.1969      135.397 
0.000463337      5.76904      72.4441 
0.000315002      10.3005      163.185 
-0.000239014      4.79433     -139.399 
-0.000314655      6.20524     -98.3369 
-0.000317068      9.79826      132.188 
0.000229536      8.91736      73.7168 
-0.000250222      10.1682      135.398 
0.000254765      11.1807      117.024 
0.000171010      7.59403     -73.4721 
0.000276866      10.0508     -167.706 
-6.14365e-05      9.56355     -124.088 
0.000222345      9.38018     -89.5096 
0.000110167      7.59061      169.370 
-0.000249008      9.24474     -16.5919 
0.000217524      6.38771     -112.066 
0.000191742      8.99612      3.44308 
0.000164745      7.81456     -149.892 
-0.000111504      9.37677      24.9798 
-0.000162746      8.23254      75.2190 
8.40603e-05      1.82503      9.46620 
-0.000113027      11.9433     -144.472 
-0.000137494      9.44636      154.412 
-0.000161907      8.99746      15.7367 
-0.000184842      7.55853     -154.112 
-0.000109118      9.57971     -124.022 
-8.40908e-05      8.68466     -82.9874 
0.000211470      8.16608      160.543 
-0.000162594      9.78466      132.100 
5.63661e-05      5.12647     -2.90303 
-0.000107598      9.67204      36.8441 
8.21535e-05      8.81483     -84.9257 
8.08050e-05      7.44521     -105.905 
7.95789e-05      9.39275      22.1431 
0.000178278      12.8931     -132.799 
0.000104300      9.23609     -165.965 
-5.23760e-05      4.64032      66.6396 
0.000127901      10.5506     -135.614 
5.26062e-05      10.2673     -44.6861 
0.000103012      10.0760     -19.1191 
-0.000151003      3.70684      169.113 
-0.000191622      9.52535     -48.9160 
0.000101046      5.10528     -2.69587 
-2.65469e-05      8.68221     -83.1201 
-0.000100241      7.42264      145.540 
5.21629e-05      5.46742     -31.5369 
-5.13030e-05      8.58319      21.6014 
9.91455e-05      7.94553      103.685 
7.49891e-05      12.6346     -141.298 
-5.07254e-05      11.9315     -144.551 
9.88274e-05      13.4921      134.520 
-7.47642e-05      8.66284     -83.1046 
5.05877e-05      10.1733      80.7211 
-2.55511e-05      9.68420     -36.9400 
4.97730e-05      8.83426     -84.9369 
4.91177e-05      4.31986      39.3608 
-2.52800e-05      10.8226     -116.091 
9.71898e-05      6.39041     -5.56599 
-4.88439e-05      9.95599     -36.9148 
-4.90363e-05      4.31330     -45.1903 
2.50150e-05      1.13161      133.549 
7.27173e-05      2.61511     -6.14411 
4.90960e-05      10.0528     -127.643 
4.91059e-05      12.6464     -41.9865 
4.91098e-05      6.52391      4.92236 
7.28122e-05      10.2886     -9.05974 
-7.24889e-05      9.42810      154.359 
4.83859e-05      6.22657      54.6742 
2.46701e-05      8.34777     -104.004 
2.46242e-05      10.1293     -92.4881 
4.83080e-05      12.9702     -140.441 
2.46314e-05      10.1031     -133.074 
-4.84116e-05      10.8315     -116.187 
2.44303e-05      2.37215     -5.80978 
2.44221e-05      2.68378     -167.518 
-2.43374e-05      4.86617      13.0655 
2.42732e-05     0.551483     -43.5114 
2.42127e-05      9.62422     -106.665 
-2.42213e-05      10.9398     -140.491 
2.41205e-05      10.1765      80.6127 
-2.40637e-05      4.88566     -9.42326 
-2.38767e-05      7.04517      34.0066 
-2.38767e-05      11.9664      54.3166 
2.37835e-05      2.46453      38.0877 
2.37127e-05      11.1715      116.932 
-2.36502e-05      6.12191      75.2364 
-2.36142e-05      5.47031      7.77331 
2.35416e-05      9.63005     -106.780 
-0.000223507      9.75773      174.944 
-0.000155928      2.93666     -142.193 
0.000225557      14.1304      46.0887 
-0.000209090      9.20325      39.7105 
-0.000157017      7.63393     -161.992 
0.000236431      8.98363     -1.65612 
-0.000194151      6.27279      151.638 
-0.000136898      9.89405     -112.210 
-0.000163706      6.91615      77.8110 
-0.000132143      11.9930      135.406 
-3.94902e-05      3.89009      59.7452 
-0.000153238      9.33602     -34.4386 
5.99774e-05      7.92369     -97.2522 
0.000261394      10.3703     -170.899 
-3.94204e-05      3.88290      59.3363 
5.54194e-05      9.14258     -55.3343 
-0.000184538      7.88502     -28.6431 
3.70096e-05      6.91157     -139.809 
-0.000274230      11.9510      38.1356 
-3.86248e-05      7.18943      163.682 
-5.37557e-05      9.98885     -4.36437 
3.67317e-05      6.01923     -120.997 
5.68106e-05      11.0517      136.981 
0.000142093      8.19875     -76.7460 
1.92331e-05      8.71343     -9.24736 
-0.000249755      9.81838     -74.0390 
0.000226571      12.0866     -48.5564 
-5.47900e-05      8.52434      31.8642 
6.73926e-05      10.8646      144.819 
0.000159643      10.6202     -19.3567 
1.86774e-05      7.94305     -97.2345 
0.000138246      7.33191      72.7037 
-3.65098e-05      8.15828     -101.309 
-3.42249e-05      7.53197      143.312 
-0.000154455      9.27183      137.535 
3.61537e-05      13.8452      45.2920 
-0.000162242      10.2269     -46.1892 
0.000101333      12.3802      139.257 
1.83933e-05      8.98309     -1.53174 
-9.63921e-05      5.73646      142.649 
-6.59868e-05      7.19515      163.527 
8.74430e-05      8.73268     -9.22679 
0.000164697      9.91317      119.359 
0.000185774      5.53227     -28.9708 
0.000211368      9.52176      46.6158 
-5.18034e-05      4.93135      163.995 
0.000150380      5.15911      41.2259 
-8.73715e-05      8.78483     -110.663 
-4.45421e-05      12.8419     -45.6321 
-1.78751e-05      7.07717     -119.827 
3.50639e-05      11.0507      136.833 
0.000351480      12.9049      46.8850 
7.86063e-05      5.38012      37.2918 
6.58891e-05      9.86932      32.7549 
-0.000102903      7.63751     -127.977 
-0.000122200      11.3039     -133.351 
-4.94086e-05      9.67360      134.664 
-0.000120039      3.66279     -44.7759 
-5.01047e-05      8.23149      93.0622 
-9.39463e-05      10.5037      167.129 
3.35673e-05      7.94052     -97.0894 
1.72307e-05      9.95358      111.823 
-3.32687e-05      11.1518      132.819 
-8.95178e-05      8.16227     -101.448 
-7.23065e-05      6.37165     -132.203 
4.82114e-05      5.64588      87.3642 
-0.000165110      12.8502      128.618 
1.68925e-05      9.68989     -10.1021 
7.76878e-05      10.0222     -99.6506 
-4.62238e-05      12.8837     -45.5663 
-4.67068e-05      8.51366      31.7484 
7.74240e-05      11.0359      136.761 
-7.05945e-05      8.88152     -125.839 
-4.60062e-05      4.19122     -166.762 
-3.20434e-05      3.80000      56.8120 
1.64850e-05      5.20157     -88.6774 
-3.20494e-05      8.99183      49.3318 
-0.000105182      8.51530      41.4776 
3.05101e-05      8.85432     -29.0522 
6.06792e-05      13.8454      45.4106 
3.12060e-05      9.92724      111.758 
-0.000107185      10.1546      98.6103 
-5.65536e-05      11.0141      40.1389 
-1.61400e-05      10.1160     -116.922 
1.61056e-05      10.5944     -19.2897 
-4.52013e-05      1.58592     -103.852 
-3.05081e-05      5.23940      163.364 
1.58225e-05      8.17780      128.050 
0.000126597      11.0724     -123.058 
0.000113163      10.0548     -38.2144 
-5.54389e-05      1.92399     -176.422 
-0.000124237      10.1069     -116.820 
1.56521e-05      11.5950      54.3360 
2.97752e-05      8.55936     -43.3908 
-4.51900e-05      10.8581     -116.471 
-5.82237e-05      11.9786      135.338 
7.35725e-05      9.13107     -55.4389 
4.39184e-05      10.0406      6.29007 
4.29397e-05      10.0414     -99.6320 
0.000119304      12.3930      139.189 
-7.16948e-05      8.25172      93.0547 
2.88921e-05      11.0368      136.909 
-3.01173e-05      12.9265     -45.5010 
-0.000110420      7.93461     -134.080 
-1.51383e-05      11.1386      132.745 
-1.51203e-05      9.61003      174.147 
6.48022e-05      9.70644     -9.96770 
-0.000107963     0.962396      43.3255 
-4.11279e-05      11.2160     -33.8049 
2.76992e-05      10.5975      16.8978 
-9.80538e-05      13.6633      134.050 
7.07177e-05      9.09303     -121.419 
0.000205972      8.95092      92.8159 
-1.49468e-05      10.9576      132.338 
-0.000130115      9.11848     -67.4298 
0.000141412      5.47759     -9.66878 
-0.000159367      6.79673     -94.0518 
-4.21230e-05      9.99654     -37.0308 
1.47674e-05      10.3931      74.6001 
7.74204e-05      12.1644      144.637 
-0.000100405      9.00504      49.2340 
5.33249e-05      11.7171     -127.789 
-2.85490e-05      9.79250     -126.613 
6.56523e-05      3.08326      157.098 
-5.26778e-05      9.65937      134.578 
-5.50622e-05      10.9863      132.345 
-5.10473e-05      9.59197      174.014 
-0.000111282      6.11678      75.4199 
-2.74429e-05      10.0091     -4.35555 
