! Center RA: 12 21 31.69052,  Dec: +28 13 58.50022 (2000.0)
! Established model.
! Flux (Jy) Radius (mas)  Theta (deg)  Major FWHM (mas)  Axial ratio   Phi (deg) T \
! Freq (Hz)     SpecIndex
 0.0786815      0.00000      0.00000 
 0.0279750    0.0300155      90.0000 
 0.0118242    0.0300155      180.000 
 0.0114577     0.123757      75.9638 
0.00456041     0.153050      78.6901 
0.00393664     0.241993      97.1250 
0.00704240     0.271802      96.3402 
0.00274728     0.301652      95.7106 
0.00290566     0.330170      90.0000 
0.00137665     0.180093      90.0000 
0.00462678    0.0424483     -135.000 
0.00434444     0.212241      98.1301 
0.000704361    0.0949173      71.5651 
0.00240215     0.360186      90.0000 
0.00338728     0.108222      56.3099 
0.000482015     0.247514      104.036 
0.00107386    0.0300155     -90.0000 
0.00247258     0.844524      106.519 
0.000655602     0.295618      113.962 
6.22995e-05     0.764512      101.321 
0.000235424     0.759190      99.0992 
0.000233901     0.361434      94.7636 
0.000369753     0.391354      94.3987 
0.000771859     0.725978      97.1250 
0.000216360    0.0424483     -45.0000 
0.000106103    0.0848966      45.0000 
0.000436582    0.0600310     -90.0000 
0.000197389     0.335583      116.565 
0.000145528    0.0671167     -26.5651 
0.000752547     0.390201      90.0000 
0.000818503     0.563940      115.201 
4.69053e-05     0.551828      112.380 
9.19763e-05    0.0848966     -45.0000 
0.000965215     0.350038      120.964 
0.00148388     0.963960      95.3600 
0.000577683     0.108222     -33.6901 
0.000350931    0.0671167     -116.565 
0.00109375      6.49198      102.815 
0.000219225     0.551011      119.358 
0.000517507      1.57901      104.307 
0.000595268     0.134233     -26.5651 
0.00104574     0.882067      107.834 
0.00149892      3.80499      104.143 
0.000567866      1.47094      101.774 
0.000769489     0.722868      94.7636 
0.000500556      6.38351      105.539 
0.000254599      8.85733      102.720 
0.000588333      1.58670      105.357 
0.000170148     0.569504      108.435 
0.000854629      9.32172      106.451 
3.17541e-05     0.934080      95.5320 
0.000179326     0.788842      81.2456 
0.00108998      8.86399      102.909 
0.000586258      3.23109      111.799 
0.00116205      2.58185      141.135 
0.000761720    0.0949173     -108.435 
5.44638e-05     0.541112      123.690 
0.000776455      3.35483      117.711 
0.000374534     0.793965      79.1042 
0.000364795      5.45487      108.936 
0.000221351     0.391354      85.6013 
0.000568677      9.84599      96.6478 
0.000152442      8.87231      101.311 
0.000173777      2.25046      91.5285 
0.000555027     0.161638     -21.8014 
0.000304198     0.366386      124.992 
0.000752549      5.53613      101.247 
0.000227573      6.49871      103.073 
0.000480695      1.43562      100.846 
0.000436250     0.566331      122.005 
0.000449288      5.12668      106.313 
0.000343959      8.86647      101.121 
0.000242466      2.16120      88.4083 
0.000576118      4.14716      104.235 
4.60018e-05      6.48282      106.675 
8.55996e-05     0.108222      33.6901 
0.000502788      1.61566      105.075 
6.75836e-05     0.967226      97.1305 
0.000187891      2.24986      90.7644 
6.63671e-05      3.34097      117.256 
0.000198024      9.86848      109.537 
2.26831e-05      1.84588      97.4746 
0.000524916      6.21910      101.688 
0.000595354      10.1511      96.7883 
0.000608984      6.49150      106.929 
0.000125054      1.85002      98.3963 
0.000341744      11.3449      110.590 
0.000535561      9.87932      96.8006 
0.000354005      9.58058      115.602 
0.000430922      9.31326      106.274 
0.00117472      9.85848      109.373 
0.000381318      3.24236      112.291 
0.000439471      11.1699      109.942 
0.000554393      2.41790      101.456 
0.00102341      9.19889      98.8169 
0.000150785      5.48327      108.834 
0.000256133     0.408255      126.027 
0.000514544      9.02333      107.410 
1.98648e-05      6.93449      103.256 
0.000505343      4.86689      108.323 
0.000259751      2.13119      88.3859 
0.000243529      1.81612      97.5978 
7.40404e-05      6.96371      103.199 
0.000193277      2.24966      90.0000 
0.000251268     0.967226      82.8695 
0.000487413      2.60529      141.549 
0.000344718      9.91743      115.247 
0.000498844      5.11833      105.990 
0.000393137     0.891718      109.670 
0.000380751      2.04119      91.6853 
6.72383e-05      2.70390      107.424 
0.000485669      9.59359      115.763 
0.000320248      5.58794      109.119 
0.000116916     0.268467      63.4349 
0.000154832      8.76079      103.467 
0.000219000      6.99294      103.143 
1.66686e-05      8.86073      100.930 
0.000280260      8.56692      107.737 
0.000130088      2.40049      88.5670 
0.000406166      11.3836      110.678 
0.000139996      8.83291      109.235 
0.000122969      2.27987      89.2457 
0.000197980      5.60089      101.429 
0.000454561      9.93027      115.403 
0.000313965      3.20324      111.998 
0.000162300     0.283165      57.9946 
5.44302e-05     0.582795      101.889 
0.000124132     0.971408      81.1125 
0.000252763      2.28047      88.4916 
0.000186302      8.82307      109.051 
7.04941e-05      9.88292      96.9734 
7.89649e-05      2.26582      96.8473 
0.000143855      10.1740      96.4326 
9.33018e-05      2.84743      110.340 
1.39727e-05      8.88007      102.488 
0.000142294      3.32828      117.952 
0.000129284      5.26537      101.500 
0.000206850      9.57969      116.003 
0.000154037      9.95377      97.4459 
0.000101604      6.51918      101.412 
6.38929e-05      6.83556      99.0890 
0.000101837     0.108222     -123.690 
7.52949e-05      9.58194      115.200 
7.54253e-05      4.15464      104.636 
1.29769e-05      8.72397      104.134 
7.45972e-05      1.00107      81.3779 
4.95191e-05      5.54978      108.927 
6.24694e-05      8.70227      104.374 
0.00103647      13.2227      9.27149 
-0.000976230      16.7661     -124.061 
-0.000497315      7.70506     -47.0522 
-0.000966505      12.9378     -175.613 
0.000543576      13.2925      7.78338 
0.000530577      14.3935     -140.835 
0.000704771      17.8479      146.658 
0.000866944      11.6998      14.2501 
0.000781246      13.1149      8.81720 
-0.000772005      4.40091      22.0209 
-0.000578800      10.0157      43.5429 
0.000700463      17.2924      43.8062 
-0.000906043      8.08394     -93.4058 
0.000634527      17.8393      146.177 
0.000840980      11.5454     -24.5678 
0.000709840      3.50616      156.288 
-0.000356885      9.83524     -126.065 
-0.000504790      9.56379      167.314 
0.000294664      7.22495     -122.104 
-0.000555338      7.72554     -46.8892 
-0.000280458      10.3890     -31.8992 
-0.000451837      19.4108      135.313 
-0.000219730      16.8110     -26.6108 
0.00102093      17.8553      51.6862 
0.000663817      16.8122      37.0944 
-0.000398807      9.56700      45.3813 
-0.000202250      5.65554     -4.26110 
0.000212213      19.0715     -44.5537 
-0.000389436      7.13806      116.996 
-0.000325806      3.38690     -18.5915 
0.000266392      10.1513      92.7116 
0.000266791      3.51479     -103.318 
-0.000326232      12.6771     -130.778 
-0.000817007      10.4361     -5.93892 
-0.000450401      16.7708     -26.5651 
-0.000198867      9.43692     -7.30472 
0.000325434      14.9195     -62.9723 
-0.000563536      13.3819     -98.6399 
0.000378901      7.19954      147.769 
0.000196906      8.12657     -16.2913 
0.000197309      6.27294      14.9672 
0.000298452      13.3361      153.550 
0.000190780      7.21559     -122.432 
0.000251826      13.2628      7.80094 
-0.000190704      10.4302     -172.896 
-0.000128317      6.04646     -119.747 
-0.000253051      16.6249      48.8046 
-0.000358054      17.9140      43.1006 
0.000312523      15.8939     -67.9374 
0.000188705      13.1883      9.16380 
0.000124653      15.6982     -64.1699 
-0.000189771      3.34413      9.29746 
-0.000578687      1.60389      7.52733 
-0.000190119      19.2242     -37.2640 
-6.46290e-05      7.68312     -46.8997 
-0.000185380      8.28045      66.9644 
0.000185205      19.0926     -44.6178 
-0.000341417      9.24556      32.8143 
0.000245130      9.32805     -114.916 
6.40822e-05      13.3039     -138.473 
0.000152522      14.1110      97.8212 
-0.000184625      12.8212     -114.465 
0.000242410      10.8053      42.8612 
-0.000291509      19.4106      135.437 
-0.000182193      15.5771      15.6417 
-6.26711e-05      4.38975      21.6577 
6.27009e-05      12.9254      133.212 
-6.21599e-05      21.4046      135.170 
-0.000121664      19.5694      49.2278 
0.000121779      7.42766     -80.2341 
0.000180389      15.3000     -43.4917 
0.000240232      12.9049      133.115 
-0.000120465      15.9280      112.363 
-0.000120355      11.0924     -100.126 
0.000121253      1.24777     -152.803 
0.000119968      6.24395      15.0383 
-0.000120055      14.0017      31.9533 
0.000119659      13.3462     -138.462 
-0.000197394      13.3017     -57.9946 
-0.000119846      12.7479      157.296 
0.000120036      12.2729      50.3559 
0.000548166      12.3678      84.0134 
5.99383e-05      12.9249      127.456 
-5.94820e-05      5.65195     -99.1597 
0.000151131      14.0458      163.114 
-5.90003e-05      6.92334     -94.7250 
-5.89598e-05      19.2424     -37.3351 
-5.89204e-05      10.3909      155.434 
-5.88554e-05      12.6998     -130.689 
5.83265e-05      12.2814     -59.2998 
0.000306560      6.33095      14.8269 
-0.000411938      6.02437     -95.1453 
0.000409731      14.1298      90.1217 
-0.000633548      10.4563     -173.079 
-0.000204612      9.62976     -89.8214 
0.000508410      15.1047     -162.428 
-0.000321595      14.8434      97.0826 
-0.000307681      9.58492     -86.7687 
0.000435330      11.9559     -158.973 
0.000251849      15.6963     -47.8658 
0.000371782      6.30194      14.8967 
-0.000434759      15.9166      112.263 
-6.86678e-05      9.39615     -87.9863 
-0.000965370      15.8490     -105.930 
0.000479730      13.9513      90.8629 
-0.000502538      15.3673     -84.6232 
-0.000360260      7.61539      73.9902 
-0.000130703      14.0006      155.302 
-0.000404095      20.5784     -135.709 
-0.00121167      15.7453      76.3353 
-0.000124264      13.6200      148.236 
0.000241285      15.6838     -121.865 
0.000433812      16.0722     -158.079 
-0.000186309      11.6004     -8.92735 
-0.000323327      17.3078     -34.4059 
0.000122262      14.6461     -178.356 
-0.000332862      11.9650     -124.167 
0.000234817      9.32023     -68.4710 
-0.000222087      11.6051     -9.07374 
-0.000272052      15.6182      163.828 
-6.11766e-05      12.4900     -112.007 
-0.000421694      12.8404     -89.4643 
-0.000350119      13.3176     -57.8851 
-0.000262096      16.4985     -114.607 
0.000166028      12.2550      2.80774 
-0.000244616      16.7274     -147.449 
0.000453267      12.7201     -179.594 
-0.000206538      13.9733      155.250 
0.000115735      12.4537     -105.510 
-0.000300589      9.46148     -148.878 
-0.000262202      13.7467     -82.2229 
0.000165547      12.1085     -5.11631 
0.000545939      10.5704     -70.4318 
-0.000164901      12.5178     -111.955 
0.000160187      9.82637      176.673 
0.000158055      10.6354      149.675 
-0.000136679      11.5825     -48.4642 
-0.000670817      16.1431      156.913 
0.000268169      6.03714     -153.435 
-0.000150825      13.6455      148.302 
-0.000821134      16.3712      140.651 
0.000109513      14.4654     -152.320 
5.55922e-05      13.8937     -129.567 
-0.000365102      17.9733     -141.983 
-0.000105961      7.63176     -86.8436 
0.000101318      13.8387     -119.620 
5.49088e-05      8.71361     -112.683 
-0.000103219      16.8790      48.7472 
-0.000106978      11.1186     -126.219 
-0.000146660      8.15125     -42.9109 
0.000138632      12.6899     -179.729 
-0.000104832      11.6050     -48.5624 
-0.000153187      16.6873      155.463 
-5.40178e-05      10.4174     -2.14661 
-0.000197882      16.3755     -55.9021 
0.000227356      15.6679     -121.772 
-0.000147330      4.04183     -114.095 
5.24811e-05      14.6161     -178.353 
0.000479347      17.9340     -124.780 
-5.23848e-05      16.7146      155.506 
0.000102831      14.4793     -152.214 
9.87348e-05      19.7482      129.081 
0.000140418      14.9346      134.674 
0.000268237      12.4457     -105.377 
0.000208341      7.26643     -10.7065 
-9.84933e-05      12.7890      97.1421 
0.000448181      10.7036      70.3443 
0.000144457      9.06296     -19.9353 
0.000181741      13.2693     -116.159 
-0.000260299      12.7756      157.348 
-5.12176e-05      14.6298     -32.7780 
-9.98395e-05      14.8173      97.2121 
9.78874e-05      7.38013      40.8812 
5.11148e-05      13.6797     -126.618 
0.000187838      20.4607      136.902 
0.000261693      8.70208     -112.501 
0.000184944      1.18224      35.7279 
-5.04121e-05      13.6647     -46.2438 
-0.000220821      12.5066     -111.828 
-5.00517e-05      11.0181      7.66710 
9.28817e-05      15.7248     -54.5504 
5.00235e-05      15.4139      143.307 
0.000119832      14.0432     -134.654 
5.00361e-05      7.75141     -160.795 
-0.000281874      15.3539     -175.181 
0.000605243      20.6264     -41.9948 
4.97238e-05      8.54570     -131.298 
-4.94687e-05      14.9670     -65.2325 
-0.000442929      9.86449      44.3836 
9.73431e-05      10.7881     -27.4937 
-0.000745087      16.6475      155.514 
-4.92628e-05      9.39725     -87.8034 
0.000637779      14.4528     -152.159 
-0.000327830      8.83797     -122.666 
-9.56303e-05      3.07344     -51.3336 
-0.000292231      15.1042      44.8390 
0.000606117      13.6736     -126.794 
4.85407e-05      9.35918     -68.3675 
-0.000258891      12.2311     -123.494 
0.000118084      12.5729      105.928 
0.000225011      15.7004     -54.4868 
9.20601e-05      14.0430     -134.827 
-0.000234823      9.27080      32.7138 
-4.80583e-05      9.24105      89.2556 
0.000298076      19.3792     -128.147 
-0.000215638      18.3937      54.9620 
-4.78219e-05      10.3874     -2.15281 
-9.13471e-05      7.93136      124.831 
-0.000211945      11.0479      7.64633 
-0.000310809      10.4660     -5.92192 
0.000332230      15.4559      143.284 
0.000243108      8.54306     -131.582 
-4.71478e-05      11.2939     -60.9162 
-0.000471502      20.2023      46.5652 
-0.000553442      14.8211      97.3272 
-0.000313112      14.6401     -36.7524 
8.88728e-05      10.2573     -118.665 
4.61905e-05      16.8555      115.287 
8.72183e-05      17.7706      149.234 
9.07800e-05      10.8020     -27.6349 
-0.000166457      13.0677     -63.2584 
0.000458395      19.3130     -138.211 
8.90196e-05      12.5433      82.9936 
-4.54382e-05      7.60717      74.2075 
-0.000223139      8.07210     -48.0144 
-4.48596e-05      9.21069      89.4399 
-4.47560e-05      10.2659      36.8046 
-8.19960e-05      6.02175     -94.8609 
0.000551177      20.8112     -45.5259 
-0.000201559      3.05478     -51.7732 
-0.000317738      10.7743     -148.435 
-8.59572e-05      11.9403     -66.1381 
0.000164967      15.7464      104.565 
0.000165398      14.4190     -142.438 
0.000160008      12.2266      2.95512 
0.000226845      13.1092      117.386 
0.000159439      15.7589      47.7771 
0.000121191      12.3484     -59.3223 
-0.000198571      16.6909      125.489 
-0.000227279      14.1030     -144.350 
-0.000165888      3.30412     -32.3943 
-0.000393423      16.3587     -55.9892 
-0.000254953      14.6706     -124.501 
0.000228537      16.8427      115.195 
-0.000119643      14.4929     -95.3446 
0.000297805      10.7754     -27.7089 
-0.000421699      11.3910     -135.107 
0.000195142      15.0225      50.4297 
8.28253e-05      20.6063     -41.9328 
4.28948e-05      16.1000     -158.119 
-0.000243059      12.8102     -89.5972 
-0.000118577      9.21045      89.6266 
4.25307e-05      13.7481     -142.181 
-8.05130e-05      7.29001      73.5013 
-4.22929e-05      14.8941     -33.0816 
0.000147502      9.03475     -20.0002 
-4.22156e-05      11.2531     -60.9755 
0.000375021      20.8536     -45.5248 
-0.000115409      15.5894      163.797 
-0.000350695      9.51514      15.9193 
-0.000226078      14.0224     -81.2615 
-0.000287462      16.8442     -42.0405 
-8.01589e-05      17.3495     -34.4317 
-0.000269526      16.8565      48.6799 
-4.12701e-05      18.5280      133.228 
0.000524347      15.7074     -54.6396 
-0.000118484      15.2839      177.524 
0.000176869      12.5470      82.8576 
-0.000516569      15.8854     -106.005 
-0.000309868      18.4562     -52.7956 
-0.000214789      18.5413      39.4855 
0.000114545      14.9993      50.3566 
4.08144e-05      14.0219     -134.740 
-0.000222899      19.2331     -141.396 
0.000149695      18.0959      127.116 
7.82739e-05      15.4600      47.6734 
4.06149e-05      4.78693      49.3227 
0.000180461      16.1391     -158.060 
4.04581e-05      4.62591     -123.896 
-0.000211781      8.55451     -106.082 
0.000610790      20.3404     -137.391 
-0.000222003      16.0228     -139.480 
0.000561046      11.8438     -58.8862 
-0.000243579      11.9862      95.0246 
-3.95481e-05      13.9151      53.9458 
7.56259e-05      10.6127     -86.2703 
0.000140167      8.48668     -114.210 
-0.000107878      14.3823      100.090 
-3.92040e-05      13.7427     -82.3469 
-0.000110152      14.9326     -161.127 
-0.000108584      20.2241      46.6237 
0.000382021      14.0745      163.149 
-7.60911e-05      12.5097     -89.8625 
3.85460e-05      8.17973     -57.1249 
-0.000239408      3.32951     -32.1176 
0.000178395      14.4136     -142.271 
0.000104605      10.2600     -119.040 
-0.000136471      2.20276      6.25829 
7.25152e-05      13.5665     -36.1853 
-0.000137001      16.2053      155.619 
7.24908e-05      16.4840     -21.5699 
0.000533936      16.2586      56.5153 
-0.000364812      17.2163     -146.946 
-7.15873e-05      13.8908      53.8730 
0.000347580      21.1560     -43.5643 
-3.66977e-05      4.19458      130.065 
7.01825e-05      12.3626     -109.270 
-0.000139049      15.9670     -29.9870 
-0.000105593      15.2852      177.411 
-0.000208009      14.9796     -65.1282 
-3.62230e-05      6.21703     -112.107 
3.61508e-05      17.3420      132.968 
0.000105951      12.9268      133.024 
-3.61417e-05      11.5602      158.697 
-3.61624e-05      18.7021      53.0207 
-0.000133121      11.2100     -114.508 
-0.000247628      12.5097     -90.0000 
0.000151278      17.4076      59.9004 
6.98249e-05      15.7389      104.459 
-0.000100597      18.3525     -38.1622 
0.000276500      14.5656     -129.988 
0.000188329      15.8638      38.4740 
-0.000232497      17.8596      32.5142 
-3.54557e-05      15.3823      162.872 
0.000487617      16.7487     -137.106 
-3.51917e-05      3.48781      171.587 
0.000234372      15.4420      47.9130 
3.48234e-05      10.6936      70.4957 
-3.46202e-05      19.4667     -129.872 
6.71076e-05      12.5529      155.580 
0.000273162      15.9480      118.543 
-6.74709e-05      9.36846      177.613 
-0.000280966      15.3380      75.9651 
-0.000116337      13.0542     -63.3760 
-0.000160497      13.5821      32.4617 
3.44466e-05      9.85812      176.509 
-3.44433e-05      18.6840      53.0942 
0.000526091      13.2561     -116.043 
-3.42985e-05      11.0222      7.82173 
-0.000552386      16.2327      155.662 
0.000189333      15.4843     -47.9051 
9.52205e-05      16.2336      56.4568 
3.42043e-05      15.6830     -54.5761 
0.000127742      15.1769      52.0649 
-0.000593755      17.6078     -135.551 
3.41757e-05      12.3637     -59.2026 
-3.39649e-05      2.18112      7.90987 
-3.39559e-05      4.67706     -108.319 
5.94945e-05      18.4794     -44.0129 
0.000359700      20.5854     -136.654 
-0.000118395      14.1935      160.875 
0.000517560      12.9064      132.927 
-9.52888e-05      17.9969     -142.042 
0.000124709      9.66305      75.6206 
-0.000124405      4.81785      142.843 
