! Center RA: 12 21 31.69052,  Dec: +28 13 58.50019 (2000.0)
! Established model.
! Flux (Jy) Radius (mas)  Theta (deg)  Major FWHM (mas)  Axial ratio   Phi (deg) T \
! Freq (Hz)     SpecIndex
 0.0415324      0.00000      0.00000 
 0.0234363    0.0202604     -90.0000 
0.00485700    0.0286526      135.000 
0.00189768    0.0202604      180.000 
0.000635687    0.0446338      116.996 
0.00326653    0.0633577      108.650 
0.000184331    0.0286526     -135.000 
0.000758373    0.0896014      116.350 
0.00229200    0.0828082      104.162 
0.00563520    0.0397705     -90.0000 
0.00452423     0.107434      111.727 
0.00256924     0.101837      101.476 
0.00351394    0.0633577     -108.650 
0.00168416     0.126477      108.327 
0.000773229    0.0600310     -90.0000 
0.000876497     0.243395      99.4042 
0.00495889     0.220795      95.2649 
0.000162753    0.0896014     -153.650 
7.97895e-05    0.0720098     -146.476 
0.000152232    0.0202604      0.00000 
0.000363332    0.0397705      0.00000 
0.000144383     0.107434     -158.273 
0.000544445    0.0446338      26.9958 
0.000250269     0.126477     -161.673 
0.00124921     0.152624     -156.838 
0.000778298    0.0633577      18.6495 
5.59326e-05    0.0286526     -45.0000 
0.000213693    0.0720098      33.5245 
0.000258719    0.0446338     -26.9958 
5.19072e-05     0.145849     -164.176 
0.000246764    0.0720098      56.4755 
0.000145782     0.456152      127.850 
0.000279771    0.0446338     -63.0042 
4.78139e-05     0.223431      100.253 
0.00162619     0.468857      129.806 
0.000317023    0.0828082      75.8378 
0.000633838    0.0562440     -45.0000 
0.00106317    0.0998015      90.0000 
0.000463795     0.540279      90.0000 
7.53015e-05    0.0896014      63.6495 
0.000596607     0.560155      92.0728 
0.000266868    0.0720098     -33.5245 
0.000133211     0.100252      36.7841 
6.16649e-05     0.444008      54.2147 
0.000377622    0.0720098     -56.4755 
0.000375183     0.761740      113.206 
0.000437497     0.170734     -159.414 
0.000271057     0.456152      52.1498 
2.87576e-05     0.240977      94.8229 
2.86344e-05     0.484006      128.327 
0.00167437      7.01576      109.832 
0.000680860     0.471709      126.396 
0.000181021     0.780402      112.620 
0.000542107    0.0848966     -45.0000 
0.000200707      2.03838      105.940 
7.33553e-05     0.561200      94.0638 
0.000187409     0.798447      112.081 
0.000316073      2.40487      128.590 
2.42825e-05     0.769637      114.541 
7.10601e-05      2.01891      106.098 
8.90548e-05     0.121759      99.5784 
9.03342e-05     0.456152      37.8502 
0.000673495     0.540658      92.1476 
0.000990665      2.02462      106.648 
0.000155342     0.459977      55.6359 
0.000170414     0.116465      31.0271 
4.39295e-05     0.760096      116.565 
0.000380188     0.817257      111.547 
0.000233067      2.57618      121.347 
7.79925e-05     0.189835     -161.565 
0.000511858     0.329594     -104.100 
0.000256961     0.471709      36.3959 
4.14726e-05     0.240124      90.0000 
0.000620652     0.430710     -111.783 
0.000453092     0.752186      118.610 
0.000269041      6.29010      110.277 
0.000378389     0.259634      90.0000 
3.72129e-05     0.100252     -53.2159 
0.000770475      6.31474      100.953 
5.55609e-05      3.49375      135.696 
0.000609312      1.25320      151.379 
0.00112608      3.47928      135.463 
0.000986729     0.459977      34.3641 
7.96494e-05      6.29559      100.987 
0.000155835      6.74771      104.240 
0.000959906      6.27110      110.341 
5.27901e-05     0.835434      111.056 
0.000133053     0.488166      124.985 
0.000379071     0.113549     -45.0000 
0.000590977      2.58638      121.716 
0.000503145     0.824622      112.808 
0.000388798      7.00233      102.370 
0.000767426      6.65168      103.033 
5.02513e-05      2.24525      109.240 
0.000712698      2.32946      119.869 
0.000321350      7.36857      109.173 
0.000559223      6.75272      104.407 
0.000341821      2.26439      109.071 
0.000238869     0.209153     -163.320 
0.000328215      7.15764      99.4919 
0.000217962      6.61787      109.970 
5.81308e-05      3.51653      130.847 
0.000427160      7.12847      116.495 
0.000271029     0.842640      112.294 
0.000450551      3.50331      130.596 
0.000272003      7.37524      109.322 
0.000261967      6.32497      117.699 
0.000229597      6.40964      105.377 
9.58651e-05     0.306099     -101.310 
0.000204373      2.32215      120.551 
0.000441507      2.00594      106.808 
-0.000168709      7.47738      102.513 
0.000313706      2.25809      108.604 
0.000260750      2.30197      124.374 
2.47217e-05     0.447333      63.3920 
0.000316026      7.00891      109.677 
0.000448433     0.310708     -104.976 
0.000457953     0.769370      117.915 
9.62809e-05      2.58966      137.196 
3.56853e-05      7.38770      109.121 
0.000113700     0.227911     -164.728 
1.19758e-05     0.761721      119.899 
0.000450370      6.62456      110.128 
7.89883e-05      6.31558      117.536 
0.000571943      7.39437      109.270 
0.000779935      7.11945      116.349 
0.000104612     0.438632      65.7588 
-0.000545695      7.20926      96.6886 
0.000283232     0.128090     -51.1829 
-0.000546754      1.86562      120.960 
4.09384e-05      1.94318      113.655 
-0.000116087      7.47302      102.362 
4.14557e-05      6.27920      116.893 
0.000142224     0.449587     -110.825 
0.000145264     0.223431     -169.747 
9.62458e-05      6.27006      116.728 
0.000181479      2.25171      108.115 
0.000456307      7.47174      114.854 
9.91447e-06      6.33441      117.861 
1.84374e-05      6.34355      118.017 
5.32529e-05      1.93544      113.126 
0.000686733      1.99256      107.534 
0.000398682      6.47544      116.408 
6.72962e-05      2.29667      123.270 
0.000100816     0.280627      85.8598 
0.000267879      7.73575      109.328 
3.58993e-05      2.60456      137.499 
9.25519e-06     0.260423      85.5380 
0.000565475      6.26098      116.562 
9.87870e-05      2.29101      123.971 
0.000422439     0.243395     -170.596 
0.000278972     0.141141     -45.0000 
-0.000389610      1.64766      100.496 
-8.07080e-05      7.44980      102.247 
0.000283104      7.13840      99.5178 
0.000261675      2.61829      137.172 
1.63883e-05      6.35310      118.178 
0.000213158      3.47864      135.000 
0.000136564     0.737890      167.490 
3.99019e-05      2.27098      107.956 
0.000311226      6.65148      99.5197 
0.000115955     0.832685      114.094 
5.51500e-05      1.92757      112.572 
0.000268468      2.26481      107.468 
6.53598e-05      6.25919      110.579 
-0.000603311      2.56475      128.037 
-0.000196157      6.18713      105.562 
5.61339e-05      7.00670      102.531 
0.000184751      7.09100      112.728 
-7.73413e-05      7.44553      102.095 
0.000267154      7.40685      109.070 
5.56912e-05      6.39010      105.425 
7.73491e-05      6.25228      116.402 
-0.000109938      1.20142      161.576 
-0.000116101      6.93888      113.979 
0.000102592      6.17285      111.075 
6.01428e-05     0.484006      51.6731 
-0.000352522      2.18112      97.9099 
0.000138959      7.74820      109.137 
9.86639e-05      7.62996      102.103 
-0.000165330      6.61543      112.769 
0.000100853      2.30784      123.690 
-4.51031e-05      7.91865      112.421 
5.24705e-05     0.961787      159.303 
-0.000205390      1.85952      121.804 
-3.92607e-05      1.10259      135.000 
-6.84969e-05      7.44131      101.942 
6.60708e-06     0.282706      81.9129 
0.000123105      2.34705      119.622 
5.57632e-05      3.48795      130.813 
-0.000140971      6.16762      105.612 
3.71099e-05      6.64714      102.863 
-0.000171015      6.28980      113.222 
3.64356e-05      6.75760      104.567 
-0.000109257      1.08889      134.274 
0.000103208     0.973929      160.839 
6.04127e-05     0.449253      32.3097 
5.53296e-05     0.500058      53.1129 
6.71970e-05      7.62589      101.960 
7.81476e-05      7.76075      108.947 
1.79969e-05      7.02648      102.496 
-4.76389e-05      7.06410      105.098 
0.000118592      2.01189      107.360 
4.15481e-05      1.23546      150.928 
7.08919e-05     0.778695      119.183 
-7.67853e-05     0.644631      150.272 
1.76927e-05      1.92017      112.034 
2.37002e-05      7.13507      99.3573 
1.18634e-05      6.36298      108.888 
-1.76770e-05      5.69776      99.4983 
3.52218e-05      7.60189      101.842 
-4.10890e-05      2.29935      97.5007 
2.33980e-05     0.512006      51.3664 
5.80569e-06      7.15432      99.3319 
0.000819487      10.8586      26.2357 
-0.000860505      8.27740      16.4191 
0.000497996      3.21264      65.3445 
0.000839967      3.85200     -160.909 
0.000162598      10.8673      26.3280 
-0.000776732      10.6621      23.1981 
-0.000920285      4.66421     -2.46193 
-0.000308576      7.08293      105.057 
-0.000504203      7.53814      33.8593 
-0.000681962      9.46369      88.4279 
-0.000960443      11.6685      135.763 
0.000599134      10.8405      26.2830 
-0.000223112      9.86352      105.162 
0.000809165      7.77712     -60.0707 
-0.000210934      4.08844     -133.609 
0.000551727      10.2667     -118.761 
-0.000563965      10.0340      79.3161 
0.000287235      9.93118      8.56908 
0.000218998      11.8909      122.221 
-0.000475646      7.64443     -9.48636 
-0.000734320      2.90422      16.8056 
0.000414125      3.18648      65.5292 
0.000216691      8.82445      160.539 
-0.00111150      6.62356      1.90223 
-0.000209306      11.0617      136.174 
0.000282450      11.6945     -51.2489 
-0.000270348      10.0253      39.8226 
0.000332718      11.0550      140.580 
0.000394993      7.92056      52.6958 
0.000580375      6.06950     -69.3536 
0.000575637      8.46934      85.2583 
-0.000386612      7.08823      105.215 
0.000194659      4.89538     -107.843 
-0.000509475      11.5618      131.493 
0.000316855      4.25159     -131.186 
0.000269170      4.32793     -102.812 
-0.000316802      9.54631      84.3477 
-0.000131392      6.69538     -168.453 
6.75557e-05      7.80442     -60.0207 
-0.000254373      7.64033     -104.399 
0.000435394      10.7976      31.3626 
-0.000435321      10.3702      20.0766 
0.000130166      3.41678      77.8288 
0.000192728      10.9921     -143.360 
0.000189278      11.8744      122.271 
0.000498348      11.4559      29.6094 
-0.000495612      11.8784     -58.4236 
0.000249167      11.7072     -51.1716 
0.000253576      8.52850      82.7262 
-0.000317480      5.23481     -141.203 
-0.000190156      10.3204      129.181 
-0.000128294      10.3240      52.9527 
0.000246152      9.93422      8.68463 
0.000248437      10.7155     -26.6135 
6.44812e-05      11.6914     -51.1093 
-0.000124276      11.7404     -142.544 
0.000246122      3.85867     -160.624 
-0.000124544      3.50423      107.612 
-6.30609e-05      11.6715     -56.7462 
-6.30981e-05      10.1433      79.0874 
-0.000302548      11.2574      31.4884 
0.000241698      9.64990      150.036 
0.000240593      7.58513     -50.3505 
0.000180929      9.24450      88.2650 
-0.000182055      10.0303      79.4298 
0.000180238      6.16021      81.9755 
0.000120690      8.28353      141.473 
-0.000178413      4.81346     -162.096 
-0.000119263      6.39576     -127.123 
0.000119039      7.58308      56.1841 
-0.000118267      4.88207      141.490 
-0.000118638      6.28412     -59.5983 
-0.000117728      8.95667      37.5592 
-5.91413e-05      8.68891     -138.827 
-0.000116600      2.54009      63.8286 
-5.89400e-05      5.24753     -141.031 
5.88687e-05      11.0701      140.644 
-5.88635e-05      12.9121      44.5621 
5.87172e-05      3.19492      65.1985 
5.86546e-05      2.17730     -69.5664 
5.85042e-05      13.3503     -139.557 
-5.83736e-05      4.78558      47.7136 
-5.82577e-05      12.2721      143.150 
5.83533e-05      7.01485     -8.35893 
5.80099e-05      7.93240      52.5838 
5.79394e-05      10.2764     -118.860 
-5.78512e-05      7.65923     -104.363 
5.77904e-05      10.5462     -37.9136 
5.77324e-05      2.95659      21.0156 
5.77291e-05      9.21548      27.9548 
-5.75239e-05      11.7802     -126.577 
0.000230489      8.53299     -103.419 
-0.000411881      10.7454     -161.668 
-0.000166906      9.91898      66.8486 
0.000258961      8.89269     -103.130 
0.000110099      11.8464      57.7596 
0.000416934      7.79312      5.30381 
-0.000413142      4.56487     -22.4083 
-0.000301630      8.93035     -165.872 
-0.000370940      9.85387     -161.416 
-0.000103103      4.30152     -30.1478 
-0.000231825      9.32240     -1.35141 
0.000312753      8.65139     -175.094 
-0.000100003      4.64804     -126.426 
-0.000234819      12.1338     -45.0000 
0.000363171      9.24831     -109.455 
-0.000212962      4.80766      15.1924 
0.000142808      8.53754     -103.546 
9.76563e-05      2.86548     -97.6145 
0.000314626      10.6060      56.4617 
-0.000220570      9.44063     0.728683 
0.000171687      11.8573      57.6768 
-0.000161150      9.91133      66.9524 
-4.92756e-05      5.06351     -128.906 
0.000184651      10.7098     -122.028 
-0.000171788      10.7400      53.0228 
-0.000186818      4.27448     -30.0443 
0.000216679      8.15551      100.454 
-4.65313e-05      4.63603     -126.224 
8.71076e-05      7.74467     -139.397 
-8.60259e-05      10.3968      52.4246 
-0.000161615      5.06007     -129.222 
4.55301e-05      9.02717     -103.974 
-8.82298e-05      9.87308     -161.454 
-0.000127535      4.60816     -126.178 
-0.000191055      10.7646     -161.701 
-4.36674e-05      5.07578     -129.078 
8.26706e-05      4.64032      23.3604 
-0.000305450      8.94927     -165.902 
0.000148604      8.12580     -120.795 
0.000302650      5.15413      61.7411 
0.000145440      2.86296     -97.2275 
0.000179868      8.88811     -103.003 
0.000315657      10.7377     -122.062 
0.000313217      8.51785     -103.578 
-0.000109791      4.62987     -93.7171 
4.12122e-05      8.10988     -156.913 
0.000118083      9.53530     -64.1327 
-0.000114227      4.29138     -29.9139 
-0.000152076      12.8406      45.0000 
4.07806e-05      5.72827     -59.5820 
0.000212920      10.1895     -108.898 
-0.000142145      12.1625     -45.0000 
-0.000210193      9.91476     -104.007 
0.000114557      8.88906     -85.3516 
7.86010e-05      9.66194     -174.657 
-0.000284138      11.6901     -39.6558 
-7.64032e-05      11.5689      37.4838 
7.08168e-05      7.49901     -119.916 
-0.000200892      7.62883     -107.387 
-0.000641941      10.3233      124.181 
0.000395023      9.80310      26.4062 
3.84798e-05      5.71803     -59.7571 
0.000236486      9.28354     -118.995 
0.000447278      10.5997      106.555 
-0.000134803      12.0242     -43.6523 
-0.000228461      10.3174      166.207 
3.76468e-05      8.11755     -156.786 
0.000106380      9.53490     -68.9790 
-7.23512e-05      4.59623     -125.974 
-0.000186559      8.32009      53.4050 
3.71187e-05      5.93182     -62.0507 
0.000217689      5.13695      61.6380 
7.04389e-05      10.4086     -167.459 
-3.68388e-05      10.5175     -146.008 
6.85149e-05      9.97647     -64.9750 
-0.000526626      13.7909     -134.001 
-0.000382636      11.8364     -42.2610 
-0.000102452      10.7278      53.1093 
6.63618e-05      5.74575     -59.6843 
6.82812e-05      9.68212     -174.668 
0.000310258      7.03876     -165.687 
3.53647e-05      9.04683     -103.943 
0.000290224      9.26671     -109.415 
6.27753e-05      7.50913     -120.050 
0.000266655      10.2756     -172.168 
3.44119e-05      11.7679      44.1733 
-6.68292e-05      12.4707     -39.6656 
3.41408e-05      9.55353     -64.1857 
-6.59343e-05      10.4894     -146.038 
9.22011e-05      8.23102     -160.115 
0.000233630      13.1788     -140.851 
-3.37261e-05      4.65150      16.4850 
-0.000152186      5.07291     -129.400 
-0.000151285      13.8185     -134.003 
0.000265279      12.0916      44.6631 
3.34280e-05      5.95887     -61.9763 
-0.000187435      9.02503     -163.653 
-0.000201232      10.6628     -163.436 
-3.30354e-05      11.5844      37.4251 
3.29963e-05      13.7244     -131.868 
-3.26931e-05      9.30245     -1.23411 
0.000121357      4.02474     -78.2417 
3.21859e-05      8.89066     -85.2263 
-0.000229949      8.76231      88.6898 
3.20694e-05      13.1631     -140.795 
-0.000371763      10.6815     -163.466 
-9.14781e-05      8.44907     -112.253 
3.18701e-05      8.17469      100.429 
-0.000121527      12.3230      133.354 
6.17554e-05      11.7710      136.651 
-3.13836e-05      4.78884      15.2535 
0.000156531      7.02570      172.149 
-0.000208507      12.4410     -51.5264 
-3.11872e-05      9.86665     -161.565 
-3.11632e-05      8.81186      9.93478 
-0.000112427      10.3375     -160.092 
0.000173308      7.62446      51.1764 
0.000204299      9.49017     -135.769 
3.07484e-05      11.1266     -39.3816 
-8.61487e-05      7.30874     -66.4538 
5.81214e-05      9.96791     -65.0806 
-3.04889e-05      13.2805      49.6406 
-3.05275e-05      8.99351     -165.840 
0.000189200      9.74145     -67.8052 
0.000360308      9.50364      168.712 
0.000112402      7.76719      2.50831 
-3.00994e-05      4.63208      16.5561 
-3.00228e-05      9.81555      81.2095 
0.000114169      13.7379     -131.931 
0.000151277      12.1055      44.5982 
0.000130902      6.90398     -163.507 
2.98443e-05      7.81037     -158.362 
8.51963e-05      10.9563     -37.4334 
-2.97283e-05      11.6762      37.2013 
8.67723e-05      13.5117     -46.7395 
-0.000558275      10.5506      45.6138 
0.000134989      11.7571      136.722 
-2.91015e-05      4.90958      83.6821 
-0.000109548      8.64228     -88.6716 
0.000425426      9.40962     -66.9784 
2.90785e-05      8.36039     -157.793 
-0.000106589      12.5237     -37.0168 
-0.000161461      9.04376     -163.688 
-0.000362674      12.3372      133.292 
-8.17409e-05      9.86658     -76.1614 
-2.84195e-05      11.6918      37.1435 
2.83966e-05      7.61665      55.8089 
0.000202625      6.71210      8.39552 
-0.000153115      9.79244      81.3086 
-2.81180e-05      10.0533      63.7907 
8.07282e-05      7.66531     -44.5796 
-0.000387493      12.8549      44.9361 
8.01287e-05      5.42622     -68.8254 
0.000319645      9.72799     -87.6437 
-2.78310e-05      9.68766      126.775 
-0.000183607      11.7201      37.1626 
7.93937e-05      7.26110      82.5599 
-0.000190423      8.43102     -112.303 
-7.90426e-05      12.2144     -55.9458 
0.000242330      8.36807     -157.664 
0.000218678      13.4800     -43.9783 
8.05787e-05      13.3383      137.795 
9.96052e-05      7.81786     -158.224 
0.00108566      13.5256     -46.6770 
0.000231244      7.60387      53.3416 
-5.26912e-05      10.3635     -160.025 
-7.74485e-05      10.3371      166.234 
9.91819e-05      5.61588      4.29125 
-5.18059e-05      9.90342      67.0602 
-5.23262e-05      10.0622      63.6872 
7.81324e-05      10.6898     -37.8545 
7.59235e-05      5.17222      3.99323 
0.000217217      10.7424      69.1685 
2.66724e-05      8.52263     -103.711 
-9.79575e-05      8.22135      29.4335 
7.73449e-05      12.8382     -127.978 
-2.64164e-05      8.39264     -163.813 
-0.000184840      12.0537     -46.6144 
-7.56296e-05      13.2674      49.7073 
5.05730e-05      9.47760      114.566 
0.000124849      9.31814      47.9572 
-2.62761e-05      7.08514     -127.777 
0.000145690      7.05767     -165.726 
5.08447e-05      10.2400     -53.0184 
-0.000243385      12.9990     -48.9298 
-7.41137e-05      11.7363      37.1029 
0.000113286      7.69995    -0.446698 
2.58597e-05      9.05173     -104.067 
2.57599e-05      8.25626     -160.028 
7.28352e-05      4.02876     -77.9701 
-0.000124566      9.28042      139.719 
0.000500245      13.0524      49.5981 
0.000142513      13.2063     -140.839 
0.000117460      9.59058      133.818 
9.70062e-05      7.63718      51.0580 
-2.55036e-05      9.26019     -147.613 
-0.000229071      7.13075      69.9880 
0.000185269      13.4435      47.0493 
0.000922799      13.7790     -132.000 
