! Center RA: 12 21 31.69052,  Dec: +28 13 58.50011 (2000.0)
! Established model.
! Flux (Jy) Radius (mas)  Theta (deg)  Major FWHM (mas)  Axial ratio   Phi (deg) T \
! Freq (Hz)     SpecIndex
 0.0355901    0.0720098     -33.5245 
 0.0295958    0.0848966     -45.0000 
 0.0146604     0.100252      36.7841 
 0.0161428     0.113549      45.0000 
0.00852474     0.215843      68.1616 
0.000851815     0.197181      65.9711 
0.000400297    0.0896014      26.3505 
0.00117249    0.0633577     -18.6495 
0.00472655     0.234065      69.9384 
0.00236864     0.100252     -36.7841 
0.00504038     0.113549     -45.0000 
0.00798474     0.247514      75.9638 
0.00222099     0.262662      81.2912 
0.000971845     0.128090     -38.8171 
0.000465408     0.340529      93.4109 
0.00959815     0.141141     -45.0000 
0.000449201     0.362375      96.3009 
0.00346414     0.381773      95.9795 
0.00120358     0.243395      80.5958 
0.00106684     0.605655      97.6181 
0.00362754     0.624998      97.3810 
0.00242875     0.227911      74.7283 
0.00388546     0.100252      53.2159 
0.00390595     0.401929      95.6787 
0.00111010     0.603304      95.7106 
0.000351580     0.622720      95.5320 
0.000330534     0.209153      73.3204 
0.000448309     0.714035      101.334 
0.000438512     0.632861      108.456 
0.000651598     0.737890      102.510 
0.000221304     0.601626      93.7903 
0.000844071     0.580403      92.0005 
0.000662810    0.0633577      71.3505 
0.00138864     0.761484      103.680 
0.000922354     0.639305      110.115 
0.00138603     0.169793     -45.0000 
0.00147380      2.32846      103.911 
0.000810187     0.141141      45.0000 
0.000266699     0.380236      93.0544 
0.000439253     0.580049      90.0000 
9.07381e-05      2.32384      103.444 
0.000169565    0.0446338      63.0042 
0.000356929     0.559789      90.0000 
0.000245478     0.156126      39.7351 
0.00134167     0.204262      78.7726 
0.000146612     0.667840      98.5944 
0.000713587     0.710331      99.7310 
0.000279596     0.184432      77.5470 
0.000912889     0.170734      69.4145 
0.000136703     0.730308      99.4623 
0.000528901     0.753070      100.739 
0.000623285     0.583147      95.9087 
0.000364888      2.48364      104.935 
0.000337896      2.67772      103.830 
0.00117466      2.68263      104.250 
0.000722245      2.48893      105.385 
0.000621052     0.772985      100.459 
0.000586659      2.46479      105.052 
0.000821271    0.0896014     -26.3505 
0.000562849     0.144435      56.2274 
0.000802081     0.792179      100.203 
0.000112550     0.585580      97.8809 
0.000221898     0.161670      60.2221 
0.000109192     0.399956      90.0000 
0.000827189     0.116465     -31.0271 
0.000216112      2.47013      105.505 
0.000424961     0.815725      101.300 
0.000315502      2.45422      109.022 
0.000541725     0.380236      86.9456 
0.000203801     0.858779      102.105 
0.000658074      2.18836      108.099 
0.000101956     0.655281      102.365 
0.000200852      2.46089      109.468 
0.000200322      1.08207      117.507 
0.000297518      2.69266      103.308 
9.92106e-05     0.627803      99.1471 
0.000936371      1.09157      118.450 
9.78125e-05     0.878599      101.828 
0.000554089      2.21395      108.435 
0.000190006     0.156126      50.2649 
9.67775e-05      2.44180      109.627 
9.66629e-05     0.675085      101.997 
0.000904803     0.144435     -33.7726 
0.000191521      2.68824      102.904 
0.000362945     0.400469      87.1001 
0.000188158     0.902718      102.823 
0.000184026     0.561200      94.0638 
9.43591e-05      2.46746      109.895 
0.000367888      2.70284      102.393 
9.24511e-05      2.44842      110.057 
9.17935e-05     0.694181      101.662 
0.000266005      2.47443      110.336 
9.04976e-05     0.898439      101.563 
9.04270e-05      2.62075      105.954 
0.000176146      2.72263      102.301 
0.000340016     0.921752      102.554 
0.00106941      1.10137      119.377 
0.000171138     0.540658      92.1476 
0.000332094      2.71838      101.884 
8.54336e-05      2.64562      106.240 
8.50390e-05      2.45544      110.501 
0.000324997      2.48155      110.775 
0.000163352      2.37776      102.633 
0.000845585     0.172194     -35.4216 
0.000321775      2.22044      108.931 
0.000163755      2.73748      101.800 
0.000238918     0.560155      92.0728 
0.000310146     0.144435      33.7726 
8.06825e-05      2.87651      103.271 
7.97340e-05     0.945882      103.441 
7.94771e-05      2.90075      103.555 
7.87138e-05      2.73356      101.399 
0.000229568      2.92045      103.461 
7.76635e-05      2.35799      102.740 
0.000227717     0.941538      102.286 
0.000446917      2.48853      111.195 
0.000450297      1.11107      120.254 
0.000150914      2.22684      109.406 
0.000217833      2.35361      102.259 
0.000218117      2.71443      101.481 
0.000319624      2.93943      103.373 
7.36263e-05      2.09617      105.489 
0.000143429      2.26574      110.674 
7.24832e-05      1.04947      120.985 
7.22412e-05     0.937436      101.076 
0.000202388      1.12862      119.735 
0.000211927      1.98475      102.223 
0.000645786     0.161670      29.7779 
0.000275746      1.03279      121.542 
7.08103e-05     0.965599      103.161 
0.000703959     0.362375      83.6991 
0.000320610      1.14625      119.233 
0.000274845      2.51408      111.465 
0.000138486      1.17320      119.631 
0.000136576      2.85738      105.007 
0.00192618     0.184676     -40.5508 
0.000201793      2.95914      103.282 
6.84937e-05      1.98055      101.651 
6.83347e-05     0.961344      102.029 
0.000129958      2.72962      100.982 
0.000260918      2.29894      111.423 
6.75902e-05      1.19085      119.149 
0.000515024      1.95742      101.185 
0.000473922     0.727252      97.8876 
0.000322324      1.21844      119.517 
0.000129470      2.74952      100.902 
6.61911e-05     0.957327      100.843 
6.59690e-05      2.73231      107.898 
0.000190718      1.01558      122.140 
0.000127264     0.540658      87.8524 
0.000256524      2.49593      111.629 
0.000251082      1.20401      94.7547 
0.000791006      1.04313      122.455 
0.000128586      2.87695      104.903 
0.000125053      2.36938      101.694 
0.000305238      2.97886      103.193 
0.000179376      1.22602      95.6199 
0.000233471      1.22420      94.6761 
6.20768e-05      2.81471      109.077 
0.000348468      2.30641      111.891 
0.000407276      1.23546      119.072 
0.000118686      2.88223      105.292 
0.000120239      2.52156      111.893 
0.000348682      1.93382      100.734 
0.000118519      2.82140      109.466 
5.96228e-05      3.14825      103.592 
0.000170846     0.560155      87.9272 
0.000363788      2.74576      100.487 
5.87923e-05      3.00252      103.484 
0.000170840      2.38449      101.123 
0.000171516      3.16795      103.506 
5.80088e-05      2.47711      111.801 
0.000217528      2.50347      112.060 
0.000606304     0.178866      26.6725 
0.000112555      2.84632      109.706 
0.000319289      1.62076      99.2181 
0.000215192      3.18692      103.424 
0.00122498     0.212689     -41.2810 
0.000349453     0.541740      85.7900 
0.000190367      2.98355      103.571 
0.000105909      2.25618      102.798 
0.000211212      2.85322      110.089 
0.000107483      1.18309      93.8914 
5.42943e-05      2.03938      101.310 
0.000153795      2.45831      111.977 
0.000405092      1.25320      118.621 
0.000155263      1.91392      100.847 
0.000350230      2.31404      112.357 
0.000103533      2.06329      101.751 
0.000101956      2.38067      100.644 
0.000149795      1.16165      92.9622 
0.000463117      2.87923      110.329 
0.000100960      3.19169      103.778 
5.09112e-05      1.24544      95.5320 
0.000197350      3.29514      102.267 
0.000404697      1.02609      123.063 
4.99794e-05     0.996416      100.413 
0.000280888      1.64076      99.1048 
9.45301e-05      2.90105      105.190 
4.90071e-05      2.25194      102.313 
0.000185319      1.89101      100.356 
0.000370476      3.17274      103.862 
4.82324e-05      2.40058      100.555 
0.000269402      2.48470      112.235 
4.79529e-05      3.00731      103.859 
0.000137757      2.05926      101.199 
4.76765e-05     0.724832      96.3598 
8.74384e-05      1.08889      97.4042 
0.000130969      2.23215      102.424 
9.12932e-05      1.16078      91.9634 
0.000134343      3.31928      102.534 
0.000134485      2.39709      100.096 
0.000304512      1.27103      118.184 
0.000173606      1.44345      93.9647 
0.000300765      2.32154      112.802 
8.86687e-05      1.06954      97.5389 
0.000108289     0.998483      122.759 
8.84916e-05     0.216445      33.6901 
8.81915e-05      3.34260      102.788 
8.71201e-05     0.543603      83.6598 
0.000123337      2.90622      105.561 
0.000250756      3.30180      107.990 
0.000168025     0.743162      113.822 
0.000836248      2.74227      100.086 
8.25869e-05      1.89476      100.958 
4.30740e-05     0.839927      88.6178 
0.000664387      3.63854      103.343 
0.000354668      2.07913      101.091 
0.000164243     0.288454      33.6487 
0.000231615      2.51086      112.472 
0.000576187      1.64409      99.8020 
4.21641e-05      1.14002      91.0183 
0.000120474      3.20101      109.344 
0.000270357      2.39362      99.6188 
8.02374e-05     0.702680      94.9008 
0.000123043      1.87109      100.467 
0.000119280      1.13984      90.0000 
4.09257e-05     0.523472      83.4149 
0.000230776      1.28826      117.774 
0.000189604      2.88606      110.692 
0.000250917     0.526180      81.2228 
0.000287620      2.32946      113.262 
0.000179318     0.725357      114.444 
0.000110607      1.42324      94.0210 
3.89034e-05     0.800901      87.1537 
3.87014e-05      2.52890      112.303 
0.000219487     0.304887      31.6167 
0.000110174      3.31495      102.193 
3.83921e-05      2.30287      112.998 
0.000112000      1.87487      101.076 
0.000213343      3.32664      108.218 
0.00165601      3.96811      103.406 
0.000144750      1.14002      88.9817 
0.000210671      3.18190      109.465 
3.73992e-05     0.170734      20.5855 
0.000101610      2.63580      101.828 
3.68960e-05      2.20879      102.020 
0.000102351      1.09157      98.4198 
0.000610557      1.12141      121.148 
3.59913e-05     0.701240      93.2513 
0.000134761      2.55536      112.551 
3.58415e-05      1.29746      118.536 
0.000334139      1.10476      121.671 
6.94759e-05      1.94502      104.889 
3.50678e-05     0.802162      85.7082 
3.50638e-05      2.21310      102.533 
6.94321e-05      1.30622      117.360 
6.30233e-05     0.751254      115.183 
0.000254713      2.39032      99.1400 
0.000189887      2.91220      110.924 
3.42471e-05     0.365154      80.5377 
3.39046e-05      3.29090      101.922 
0.000278717     0.322315      29.7283 
0.000249950      1.31530      118.115 
3.35737e-05     0.781960      85.5971 
0.000188447      1.14053      88.0017 
3.32650e-05      1.92120      104.476 
0.000259635      1.64766      100.496 
3.29084e-05     0.680152      91.7070 
9.44210e-05      3.28692      101.590 
0.000184448      1.92617      105.038 
6.46689e-05      3.34589      108.110 
0.000125131      2.35610      113.520 
5.92037e-05     0.184432      12.4530 
0.000175288      1.89893      113.597 
6.14501e-05      2.18898      102.130 
0.000206346      3.18846      109.795 
6.15643e-05     0.660651      91.7574 
0.000112222      1.42200      93.2369 
0.000142052     0.733645      115.831 
3.11896e-05      2.49215      112.650 
8.91319e-05     0.764371      83.9704 
5.95677e-05      3.37076      108.334 
3.07146e-05     0.340529      86.5891 
0.000299148      1.62957      119.398 
0.000117822      2.58186      112.794 
5.93727e-05     0.509625      78.7066 
5.98942e-05      3.38999      108.226 
3.00781e-05      1.11162      98.2668 
8.22551e-05     0.982133      123.374 
8.11721e-05      2.65563      101.739 
2.92159e-05      3.45417      107.171 
0.000138672      2.38180      113.763 
8.38901e-05      3.28291      101.243 
0.000211837      1.14142      86.9852 
0.000133679     0.319665      90.0000 
0.000326745      2.38730      98.6777 
2.82859e-05      2.86793      105.774 
0.000221344      2.09828      100.988 
8.03045e-05      1.11471      99.2975 
8.10798e-05      3.47281      107.076 
0.000226137      2.76222      100.012 
0.000134923      1.93153      105.618 
0.000257023     0.954085      123.028 
2.79335e-05     0.640080      90.0000 
8.05563e-05      2.93768      111.157 
2.76557e-05     0.495028      75.9638 
8.11468e-05      3.41536      108.431 
0.000197453      2.60743      113.023 
2.72490e-05      1.32424      116.957 
5.35890e-05     0.746582      82.3178 
0.000238595     0.340058      28.0353 
2.67753e-05      2.86269      105.399 
0.000101970      3.27902      100.896 
0.000209128      1.33320      117.704 
7.60405e-05     0.513977      76.4913 
0.000175324      3.16940      109.919 
2.59300e-05      3.43388      108.328 
5.10627e-05     0.915694      121.632 
5.05967e-05     0.749560      80.7829 
9.94353e-05      2.40853      114.010 
0.000496307      2.84316      105.507 
0.000210417      1.90661      105.196 
7.45785e-05      3.44030      108.648 
4.81074e-05      2.96364      111.368 
0.000313533      1.90682      114.134 
4.82391e-05     0.733911      78.9773 
2.39826e-05      3.15308      103.950 
4.75074e-05      3.51853      110.290 
0.000112391     0.300838      93.8616 
2.39008e-05      2.94478      111.511 
0.000111589      1.13810      100.139 
9.10228e-05      3.27539      100.561 
0.000174391      2.39003      114.207 
0.000172502      1.12476      84.9094 
0.000194602     0.706962      115.123 
9.65649e-05      2.12209      101.421 
8.96500e-05      3.47882      107.395 
4.56062e-05     0.500328      73.7123 
2.29155e-05     0.718124      77.1400 
0.000110501      1.67120      101.027 
6.72585e-05      3.52534      110.587 
6.61023e-05     0.708758      73.5796 
0.000122286      2.97108      111.732 
4.17512e-05      1.44223      93.1914 
0.000308738      2.38432      98.1964 
2.15376e-05      3.13342      104.040 
0.000210429      3.55075      110.783 
6.24945e-05     0.695981      71.5846 
0.000252416      2.63402      113.256 
3.97096e-05      1.28157      92.6848 
0.000119041      3.27174      100.212 
0.000475419      3.49816      107.296 
0.000311944      1.91202      105.782 
2.05618e-05     0.506146      71.5919 
3.23351e-05      1.66758      100.369 
0.000124604      2.11818      100.884 
0.000190043     0.357396      26.5651 
0.000161683      1.14170      101.103 
0.000251995     0.302778      97.5477 
3.92168e-05      3.11449      104.127 
7.79599e-05     0.683639      69.4366 
0.000122495    0.0600310      180.000 
7.56858e-05      2.37225      114.400 
1.94740e-05     0.486965      70.8391 
1.93959e-05      1.34274      118.470 
1.92900e-05      1.64725      119.052 
0.000137822      1.12674      83.8831 
1.88927e-05      1.88199      104.784 
0.000215147      1.65719      119.664 
0.000107888      3.17636      110.263 
0.000412726     0.690733      67.9212 
3.64460e-05      1.35498      121.111 
1.83741e-05      3.09485      104.218 
0.000140373      2.87498      101.228 
1.81860e-05      1.46149      92.3541 
0.000133701      1.80454      102.805 
0.000160929      3.26821      99.8624 
0.000159321      2.39841      114.649 
1.76696e-05      2.99742      111.948 
1.76370e-05     0.493986      68.6188 
1.74444e-05      1.59554      97.9205 
5.04858e-05      1.36556      121.839 
1.71590e-05      1.46079      91.5601 
3.31620e-05      2.97864      112.094 
3.02576e-05      3.33303      108.549 
1.67740e-05      1.52080      91.4985 
1.66079e-05      1.13203      122.026 
4.64322e-05      3.11931      104.474 
4.52118e-05      3.65753      103.272 
0.000233954      3.55799      111.088 
6.33733e-05      1.52042      90.7635 
9.62193e-05      2.82437      105.613 
1.62012e-05      2.41684      114.448 
8.68568e-05      2.11444      100.345 
1.60407e-05     0.475177      67.7281 
0.000363169      2.38152      97.7139 
3.11517e-05     0.612215      51.6692 
4.62838e-05      1.37596      122.529 
7.42377e-05      3.00477      112.293 
0.000304257      1.14577      102.097 
0.000168434     0.688672      115.839 
0.000144914     0.201375      5.77433 
2.95037e-05      1.12908      82.8608 
0.000201200      3.51750      107.198 
5.76446e-05     0.624982      50.2120 
8.45134e-05      1.52028      90.0000 
8.30358e-05      1.38695      123.234 
0.000330835      8.45339      105.645 
0.000154025      3.26492      99.5251 
7.53999e-05    0.0828082      165.838 
0.000118766      3.97285      103.690 
7.65434e-05      1.11162      81.7332 
0.000100130      3.09970      104.568 
3.97351e-05      2.38069      114.845 
4.98587e-05      3.15807      110.386 
3.85783e-05      2.11103      99.8239 
7.60758e-05     0.623033      47.5871 
6.23476e-05      3.01252      112.650 
1.33614e-05     0.465536      64.5089 
6.86578e-05      2.72233      100.161 
8.12115e-05      1.08757      122.232 
2.53902e-05      1.50016      89.2262 
2.50973e-05      2.33541      114.811 
8.40715e-05      1.39774      123.903 
3.67817e-05      3.71072      101.194 
1.26767e-05      1.38053      91.6508 
3.51776e-05     0.375627      25.1828 
1.23474e-05      1.73737      101.965 
0.000226287      3.99254      103.621 
2.40372e-05      1.52042      89.2365 
2.83145e-05      8.81062      105.268 
1.20417e-05      8.83532      105.356 
0.000127248     0.240790     -41.5891 
1.18952e-05      2.40661      115.071 
6.44285e-05      1.66693      120.247 
5.48603e-05      2.10767      99.2812 
0.000425555      8.83017      105.234 
3.82348e-05     0.456404      61.2016 
8.60271e-05     0.636355      46.2900 
2.26517e-05      2.64209      113.660 
6.44847e-05      1.50055      88.4813 
2.27872e-05      2.36232      115.051 
4.31169e-05      3.71456      101.489 
1.13658e-05      1.36028      91.6754 
0.000132636      3.56506      111.380 
9.30599e-05      6.81039      100.321 
6.99636e-05      1.11471      80.7025 
0.000108385      1.40914      124.587 
9.09811e-05      3.02038      113.004 
2.11562e-05      1.88707      105.357 
2.12920e-05     0.101837      168.524 
5.86404e-05      2.37898      97.2483 
3.16888e-05      2.34399      115.261 
0.000252026      9.48486      103.040 
3.99570e-05      2.10449      98.7368 
0.000157575      4.92696      108.211 
0.000233021      4.94549      108.141 
0.000283455      7.21306      101.838 
7.29099e-05     0.698601      66.3812 
0.000231129      2.35888      97.3104 
0.000117776     0.609552      131.007 
3.80618e-05      2.38896      115.269 
0.000259677      6.27955      124.095 
0.000199059      1.16903      102.832 
0.000119940      1.88835      114.386 
6.40527e-05     0.650520      45.0000 
2.87100e-05      1.48098      87.6769 
0.000127733      8.44815      105.518 
6.67967e-05      1.82885      103.284 
0.000144599      1.07049      122.810 
0.000257516      3.99718      103.893 
0.000123286      7.21724      101.996 
0.000134283      9.16518      107.526 
3.66234e-05      6.11141      107.131 
1.83974e-05      2.10162      98.2111 
2.49432e-05     0.394056      23.9293 
0.000119581      2.20302      119.350 
8.23548e-05      1.48194      86.8942 
9.03468e-06      1.85802      104.334 
3.42799e-05      3.02805      113.344 
8.95506e-06      2.83781      105.113 
0.000150368     0.269397     -41.9516 
3.38882e-05      6.80679      100.153 
2.57027e-05      2.11890      97.5906 
0.000113289      6.13581      107.252 
4.40745e-05     0.662354      114.997 
8.78034e-06      1.64946      120.602 
0.000154851      1.40425      125.737 
2.83097e-05      3.26163      99.1741 
8.50489e-06      9.14658      107.562 
5.07277e-05      2.37065      115.478 
2.47812e-05      1.36017      114.303 
8.41610e-06      1.09824      79.4886 
1.65848e-05     0.322129      97.0919 
9.26060e-05      9.15271      107.683 
5.44480e-05     0.665001      43.7656 
0.000190648      3.52732      97.1613 
