! Center RA: 12 21 31.69052,  Dec: +28 13 58.50011 (2000.0)
! Established model.
! Flux (Jy) Radius (mas)  Theta (deg)  Major FWHM (mas)  Axial ratio   Phi (deg) T \
! Freq (Hz)     SpecIndex
 0.0849697    0.0202604      0.00000 
 0.0177682      0.00000      0.00000 
 0.0136156    0.0202604      90.0000 
0.00434780     0.159832      90.0000 
 0.0132757     0.180093      90.0000 
0.00975274    0.0286526     -45.0000 
0.00251098    0.0202604     -90.0000 
0.00682340     0.200353      90.0000 
0.00279718     0.219863      90.0000 
0.00196624     0.280627      94.1402 
0.000249679     0.260423      94.4620 
0.00187201    0.0446338      63.0042 
0.00133659     0.300838      93.8616 
0.00226396    0.0286526      45.0000 
0.00103460     0.320306      93.6266 
0.000198821     0.340529      93.4109 
0.000196267     0.342244      96.6731 
0.00114778     0.362375      96.3009 
0.00123292     0.381773      95.9795 
0.00132955     0.810060      105.749 
0.00170951     0.829578      105.369 
0.00126090     0.401929      95.6787 
0.00301800    0.0446338     -63.0042 
0.000988393     0.854601      106.319 
0.000535811     0.422095      95.4065 
0.000269497     0.917698      106.434 
0.000262125     0.936427      106.097 
0.00183780     0.443806      97.7739 
0.000380188     0.766529      105.152 
0.000625420     0.961610      106.922 
0.000760911     0.742542      104.036 
0.00145504     0.981011      106.578 
0.00321779    0.0828082     -75.8378 
0.00226159     0.718124      102.860 
0.00249830      1.00559      107.367 
0.000460627     0.463888      97.4354 
0.00113346     0.441522      95.1680 
0.000293079      1.01158      108.422 
0.00144972     0.461703      94.9415 
0.00147092      1.03082      108.066 
0.00252012    0.0896014     -63.6495 
6.64804e-05     0.771858      106.550 
6.40930e-05     0.821746      108.418 
0.000235564     0.161111      82.7757 
6.10971e-05     0.873371      110.101 
0.000176999     0.694181      101.662 
0.000117264      1.03728      109.130 
5.87808e-05     0.854373      110.568 
0.000231040      1.05010      107.723 
0.000113037     0.880267      111.293 
5.63893e-05     0.667840      98.5944 
0.00106324     0.986983      107.705 
0.000662755     0.164706      76.0271 
0.000372076     0.145849      74.1761 
0.000219433     0.967701      108.070 
0.00103914     0.581411      93.9223 
0.000856081    0.0562440     -45.0000 
0.000192375      1.02494      107.029 
6.20595e-05      1.04433      106.703 
0.000290041     0.561200      94.0638 
0.000227574     0.184432      77.5470 
0.000176072      1.06303      106.401 
5.88728e-05     0.961787      110.697 
0.000112552     0.943561      111.116 
0.000167465      1.08248      106.098 
0.000775058      2.65702      107.063 
0.000438439     0.560155      92.0728 
0.000607965     0.540658      92.1476 
0.000212612      1.10196      105.806 
5.31212e-05     0.924690      111.568 
0.000152002      1.10744      106.777 
0.000100373     0.932329      112.726 
0.000189348     0.204262      78.7726 
0.000238819      1.12075      105.534 
0.000629613     0.107434     -68.2729 
0.000187818      2.99792      107.464 
0.000184475     0.940038      113.823 
4.70911e-05      2.63766      107.193 
0.000311191      2.63196      106.787 
9.04664e-05      3.01725      107.349 
0.000176896     0.580403      92.0005 
4.51996e-05      1.12613      106.491 
4.45337e-05      3.00406      107.833 
0.000332821      1.14028      105.262 
0.000377817      3.02335      107.715 
0.000169660     0.921540      114.332 
4.25476e-05     0.559789      90.0000 
0.000326869     0.223431      79.7468 
4.20169e-05      2.62618      106.364 
0.000204642     0.580049      90.0000 
0.000318830     0.116465     -58.9729 
0.000122576      2.60746      106.484 
0.000195089     0.600310      90.0000 
0.000303337     0.930071      115.469 
0.000193799      2.60200      106.072 
0.000377491      3.02958      108.080 
3.81524e-05     0.260423      85.5380 
0.000317217      1.15984      104.998 
0.000256296     0.126477     -71.6725 
3.75400e-05     0.460433      92.5220 
0.000146433      2.59646      105.643 
0.000181223     0.619820      90.0000 
7.08748e-05     0.440193      92.6380 
0.000274144      3.03569      108.430 
0.000139188      2.59107      105.211 
0.000424787     0.134233     -63.4349 
6.93192e-05     0.912496      115.996 
6.83608e-05     0.620151      88.1278 
0.000287866     0.640401      88.1870 
6.73987e-05     0.938962      116.586 
0.000132442      2.58602      104.794 
0.000390552     0.921556      117.128 
0.000609467      3.05492      108.310 
0.000149660     0.420705      92.7603 
6.38422e-05      2.41823      110.831 
3.19343e-05      2.58092      104.359 
0.000257612     0.189835      71.5651 
0.000389863      1.17370      103.796 
6.20529e-05      2.85990      112.622 
3.13634e-05      2.57597      103.923 
0.000151529      2.39931      111.003 
6.10296e-05      2.57135      103.501 
0.000666117     0.145849     -74.1761 
5.89138e-05      2.56669      103.061 
0.000141300      2.86775      112.996 
0.000247415     0.661537      86.5534 
0.000608440      2.38780      111.631 
5.70647e-05      2.58123      102.525 
0.000160969      2.57707      102.102 
0.000396881      1.79116      96.4224 
5.38389e-05      1.79345      97.0418 
0.000395588     0.930615      118.197 
0.000149134      2.89404      113.195 
0.000209217     0.178866      63.3275 
0.000170741      2.57290      101.661 
0.000210558     0.682496      84.9539 
0.000121218      3.06741      107.850 
2.36828e-05      2.87543      113.354 
8.69731e-05      1.19339      103.564 
0.000238950      3.06126      107.489 
2.31705e-05     0.404436      98.5360 
0.000195523      2.56888      101.218 
0.000168893      2.90208      113.562 
0.000263092     0.912809      118.798 
6.49673e-05     0.384412      98.9843 
0.000861211      1.81129      96.3507 
8.27919e-05      1.18880      102.615 
0.000121462     0.704700      83.4577 
0.000355598     0.164706     -76.0271 
2.06624e-05     0.365154      99.4623 
0.000112312     0.172194      54.5784 
0.000293274      3.05523      107.127 
6.74206e-05      1.08147      86.8180 
0.000170725      2.56516      100.791 
4.01259e-05     0.388092      101.940 
0.000135524      4.30115      111.556 
1.98865e-05      3.73197      107.469 
5.53460e-05      2.37699      112.241 
0.000185229     0.940357      119.286 
9.53637e-05      3.73787      107.755 
3.87952e-05     0.412220      104.011 
0.000130220      3.96811      103.406 
0.000126179      2.36967      111.805 
3.73902e-05      1.08279      85.7475 
0.000125216      2.91024      113.928 
5.59392e-05     0.417588      106.709 
0.000522607      1.06498      84.6228 
0.000164328     0.707189      81.8871 
0.000306888      4.31193      111.211 
7.11993e-05      3.72555      108.143 
1.81417e-05      1.19830      104.506 
7.09221e-05     0.423858      109.333 
3.47715e-05      1.20333      105.406 
0.000369310      3.96346      103.121 
6.80218e-05      2.54599      100.873 
0.000227904     0.169793      45.0000 
9.96709e-05      3.73191      108.439 
6.66083e-05     0.430710      111.783 
4.85157e-05      1.22833      106.066 
3.27573e-05      3.04955      106.776 
0.000292525     0.922740      119.901 
0.000258388      2.35825      112.428 
0.000121838      2.93600      114.122 
3.20396e-05      2.56144      100.345 
0.000272193      3.06895      106.667 
0.000420279     0.181229     -83.5812 
0.000159678      2.54225      100.424 
3.17621e-05     0.457182      113.199 
0.000115429      3.73813      108.722 
4.57343e-05     0.950432      120.351 
0.000196096      3.57710      112.692 
8.99435e-05     0.438632      114.241 
5.94421e-05      1.23409      106.970 
0.000354829      4.33820      122.956 
0.000133163     0.447333      116.608 
0.000199741     0.730308      80.5377 
4.11186e-05      1.23993      107.832 
0.000219689      4.33083      111.114 
4.08133e-05      2.95451      113.961 
6.28875e-05      2.96279      114.319 
3.83705e-05      1.24628      108.719 
5.91032e-05      2.55788      99.8989 
0.000149859      3.72553      109.117 
8.12992e-05      2.53866      99.9746 
0.000285029      3.06320      106.304 
0.000168924      3.98319      103.054 
0.000164741      2.34023      112.610 
0.000372977     0.456404      118.798 
5.86713e-05      1.25293      109.596 
0.000170375      3.55061      112.516 
6.87436e-05     0.172194      35.4216 
0.000138180      2.98127      114.159 
5.63967e-05      1.83068      96.2831 
6.63257e-05     0.895107      119.423 
5.34531e-05      1.25961      110.432 
4.26929e-05      1.90850      95.4147 
4.91414e-05     0.743162      113.822 
0.000245345     0.184676      40.5508 
6.94173e-05      4.32357      110.863 
6.78051e-05      1.92867      95.3579 
3.02282e-05     0.960438      121.355 
0.000141647      2.55460      99.4679 
0.000232336     0.200353     -90.0000 
6.73697e-05      1.26682      111.291 
0.000211775      3.97883      102.781 
3.59601e-05     0.717210      112.970 
0.000145407      2.32154      112.802 
3.67753e-05     0.987667      121.770 
7.53022e-05      2.98930      114.500 
0.000223412      4.34251      110.768 
8.98247e-05      3.71894      108.822 
0.000197145      3.55841      112.818 
0.000180906      3.00707      114.346 
8.98189e-06      2.53536      99.5404 
8.31988e-05      1.27432      112.140 
0.000162188      1.94632      94.7104 
0.000138661     0.725357      114.444 
3.29488e-05      1.80916      95.7130 
0.000205997      3.05757      105.940 
7.94804e-05     0.998483      122.759 
0.000219025     0.751254      115.183 
1.61682e-05     0.188432      58.0188 
2.97426e-05     0.733911      78.9773 
6.86195e-05     0.349107      113.700 
6.68974e-05      1.28180      112.948 
0.000134052      3.99786      102.719 
7.18853e-05      1.78901      95.7775 
0.000149477      2.55134      99.0191 
6.93777e-05      2.30287      112.998 
2.12615e-05      1.27132      114.144 
6.04513e-05      4.31018      122.877 
1.38974e-05      3.71270      108.537 
4.73560e-05     0.201375     -95.7743 
0.000131918      1.09851      123.126 
1.30891e-05     0.753070      79.2611 
6.69330e-06      3.70630      108.241 
6.69240e-06      2.31086      113.460 
6.53801e-06      3.70134      106.962 
0.000122557     0.220795     -95.2649 
6.36058e-06      3.69569      106.673 
7.19592e-05      2.30118      114.116 
6.29184e-06      1.27974      114.972 
6.24914e-06      3.65943      105.863 
9.02529e-05      3.56632      113.118 
0.000164021      2.29298      113.654 
0.000192995      4.32121      123.102 
1.77558e-05      1.25320      118.621 
3.26211e-05     0.756949      77.8100 
0.000149657      3.05227      105.587 
0.000133153      3.01548      114.696 
6.02166e-06      3.64856      105.251 
3.02297e-05      3.73197      109.400 
6.03641e-05      4.01763      102.655 
0.000179882     0.331336      115.056 
1.15664e-05      3.60879      104.117 
9.90386e-05      1.94482      94.1376 
0.000147772      4.36075      110.677 
3.59857e-05      1.28983      113.776 
1.10961e-05      3.58016      103.564 
9.40772e-05     0.188432      31.9812 
4.37839e-05      3.73874      109.693 
9.15037e-05      1.27103      118.184 
0.000159118      3.55130      103.017 
7.28148e-05      1.06333      85.6695 
5.70046e-05      4.03740      102.592 
6.10719e-05     0.223431     -100.253 
0.000101828      2.54825      98.5691 
3.09634e-05     0.781185      76.6712 
5.31646e-05      4.05644      102.532 
2.92957e-05      1.29979      112.612 
3.15834e-05      1.78708      95.1313 
3.26193e-05      3.72659      110.092 
7.77929e-05      1.96368      93.5053 
8.64681e-05      3.04689      105.220 
8.51804e-05     0.243395     -99.4042 
3.57837e-05      4.07622      102.470 
5.34963e-05      4.37972      110.584 
3.72674e-05     0.205897      28.9938 
6.60684e-06      1.76690      95.1900 
6.67579e-06      4.09170      102.132 
2.19072e-05      3.54770      113.246 
4.84896e-05      4.11078      102.075 
1.19690e-05      2.32636      115.466 
2.04505e-05      1.28826      117.774 
8.87083e-06     0.786103      75.2342 
5.96414e-06      3.06811      115.901 
2.92717e-06      3.55544      113.535 
1.68426e-05     0.247514     -104.036 
5.56688e-06      3.56208      114.546 
5.49456e-06      4.14626      101.684 
0.000154721      7.84507     -78.2333 
0.000495154      7.37102      43.3500 
3.76141e-05      7.86022     -78.4015 
0.000145598      8.64521      166.896 
0.000486679      11.4710     -135.917 
0.000357745      9.40573     -165.846 
0.000295829      10.2604     -75.2035 
0.000137141      7.84111     -78.3728 
-0.000253258      7.53626      65.5428 
-0.000251909      11.1626     -62.9285 
0.000409916      8.64982      166.765 
-0.000233147      1.98844      5.19639 
-0.000254792      9.70884     -18.9937 
-0.000389523      10.4273      59.4506 
-0.000208915      10.8653      143.911 
0.000198749      10.2122     -87.1950 
0.000206211      6.23294     -10.9163 
0.000122234      9.40080     -165.966 
9.28680e-05      13.3592     -50.0403 
0.000172061      12.4882      44.5448 
-0.000199871      6.27171      168.222 
6.11482e-05      7.85218     -78.6911 
-0.000148749      2.68549     -21.4030 
0.000248579      8.69626     -79.1274 
0.000109258      11.3442     -138.075 
-0.000139629      13.2772     -140.196 
-0.000110893      5.97997     -179.619 
0.000137893      7.72783     -153.569 
0.000274357      3.74455      49.3315 
-0.000269545      12.2810      56.1555 
-3.00890e-05      7.74234     -125.537 
0.000113581      9.74947      26.8293 
8.43510e-05      6.20770     -27.2279 
0.000263756      13.3722     -49.9738 
-8.47777e-05      7.75413     -125.659 
-8.20148e-05      9.27766     -97.4308 
5.71152e-05      10.7838      33.8073 
-0.000207921      7.59977      53.1278 
-0.000132100      10.8416     -111.312 
7.86298e-05      9.13608     -128.601 
0.000180537      10.2552     -75.3130 
-0.000130551      12.5677     -129.770 
-2.80823e-05      10.0508      39.9967 
-0.000129127      9.72675      173.270 
5.29569e-05      9.12345     -128.502 
-0.000135199      13.5800     -131.059 
-7.74239e-05      7.22736      156.341 
-0.000102591      6.29154      168.260 
-0.000153093      2.70366     -21.2522 
5.31029e-05      7.83705     -78.5179 
-2.73137e-05      5.96803     -142.895 
-0.000101142      10.0533      39.8340 
7.81925e-05      10.8000      33.7497 
0.000150877      8.94376     -95.6479 
0.000126851      10.0477      115.086 
5.17255e-05      10.3846      79.7944 
-7.59072e-05      8.68204     -91.3223 
-5.19733e-05      12.7252      141.507 
-5.21335e-05      9.64474     -49.3731 
-7.57144e-05      6.99958      38.7375 
-5.05540e-05      5.09146     -161.918 
9.94536e-05      9.73139      26.8832 
-5.07179e-05      7.76552     -125.776 
9.93791e-05      7.78746      72.8222 
-4.98869e-05      10.8489      143.848 
4.87963e-05      6.25210     -10.8824 
9.70237e-05      7.38494      43.4643 
-7.23134e-05      11.1534     -63.0212 
-4.85446e-05      7.54636      65.7465 
-7.26508e-05      10.7469     -120.287 
-2.50656e-05      9.72471      52.3511 
4.80900e-05      12.1425     -123.716 
-4.79071e-05      11.6658     -146.255 
2.44228e-05      6.22914     -10.7333 
-4.75084e-05      8.06113     -179.003 
-2.43422e-05      7.99607     -49.0564 
4.79712e-05      9.19850      78.0796 
-2.42437e-05      10.2417      101.946 
4.76973e-05      3.74201      48.9027 
-2.41377e-05      10.6002     -108.708 
-4.77328e-05      9.70927      52.2808 
-4.73110e-05      9.56458      49.7478 
2.40972e-05      1.68789     -130.673 
-2.38294e-05      11.0508      147.115 
2.37773e-05      6.19846     -27.0614 
-4.70550e-05      4.27241      53.1824 
-2.37382e-05      7.98134     -48.9646 
-2.37164e-05      5.96430     -142.633 
-2.36433e-05      9.56991     -94.5558 
-2.36064e-05      12.7094      141.451 
2.36043e-05      10.7887      33.6602 
-2.34774e-05      10.1334      96.9156 
-2.33692e-05      7.77738     -125.897 
-2.31972e-05      10.2459      102.056 
-2.32291e-05      9.83187     -115.419 
-2.31431e-05      9.71545     -19.1067 
2.31320e-05      7.70970     -153.502 
2.31217e-05      6.54974      54.3196 
2.31051e-05      12.4737      44.6100 
-2.30700e-05      5.82077     -39.9796 
2.30074e-05      11.4473     -43.0875 
-0.000176739      3.34514     -153.745 
-0.000201655      2.58760     -119.137 
-4.77427e-05      2.21320     -96.2286 
-6.98092e-05      3.36333     -153.898 
0.000214556      8.23312      46.3812 
-8.88538e-05      7.27637      155.475 
0.000106610      1.54189     -92.9849 
-0.000119549      2.21109     -95.7067 
-2.20027e-05      11.6386     -41.0264 
-0.000119796      10.3099     -111.390 
-4.21398e-05      9.47685      125.034 
0.000111962      12.8571     -132.100 
7.76060e-05      8.21967      46.4796 
-5.85520e-05      11.9063      58.3916 
-2.09693e-05      11.7663      135.276 
-4.06293e-05      11.6520     -41.1016 
0.000111948      7.04553     -34.5956 
-0.000101634      4.72607     -79.0255 
-0.000187284      10.1383      97.1387 
-9.18609e-05      7.28449      155.336 
-3.91706e-05      11.7949      135.276 
-5.58312e-05      9.46523      124.934 
5.56332e-05      7.74349      72.8785 
-3.68321e-05      14.0601      136.153 
-9.93485e-05      4.24519      51.8843 
-0.000151021      8.52370      4.30663 
-3.71855e-05      3.32698     -153.591 
-1.85082e-05      11.7807      135.346 
4.27842e-05      8.32855     -27.6109 
1.81694e-05      8.40369     -74.5416 
-8.34139e-05      6.68163      170.001 
6.62359e-05      9.39395      115.204 
0.000222197      10.3810      79.9045 
8.24620e-05      9.18216     -100.796 
4.88910e-05      8.34247      148.330 
3.44710e-05      1.56212     -92.9462 
-8.88554e-05      8.78610      92.0851 
-0.000218059      10.3170     -111.491 
4.82580e-05      8.48699      33.4667 
-3.44405e-05      3.30952     -153.441 
-6.63917e-05      7.96042      112.765 
-7.93452e-05      7.98445     -127.673 
-1.74033e-05      11.8025     -41.4947 
4.95389e-05      9.45875     -150.344 
-3.34143e-05      11.8088      135.342 
4.88057e-05      7.31288     -79.9181 
6.33838e-05      8.39831     -74.6748 
3.29543e-05      10.8860     -22.4674 
-3.31495e-05      8.80491      91.9536 
7.66802e-05      8.35590     -27.6696 
0.000152370      7.81052      92.9353 
-0.000148599      11.5520     -131.139 
-9.16564e-05      6.85024      95.3615 
-3.03553e-05      11.8101     -146.956 
-3.09658e-05      10.5390      35.5007 
-1.61989e-05      5.46432     -56.9537 
-3.19954e-05      3.29141     -153.283 
9.92550e-05      7.03405     -34.4597 
-1.58881e-05      14.1580      135.973 
-2.80871e-05      11.8271     -147.010 
4.25163e-05      7.74948      72.7353 
-4.57809e-05      2.60584      72.1233 
-1.53964e-05      3.49623      32.1449 
-3.00032e-05      11.5236     -34.8212 
-2.95932e-05      7.26608      155.269 
-4.36838e-05      7.95260      112.631 
8.04562e-05      9.79296      23.2136 
-2.93122e-05      13.1130      133.704 
1.50301e-05      12.8358      49.3598 
3.53342e-05      10.3776      80.0105 
-7.07112e-05      6.67978      14.0362 
1.49266e-05      5.90048      50.9203 
-0.000289163      10.1609      97.2379 
1.48799e-05      9.47637     -150.404 
-1.48263e-05      12.4249      132.912 
1.47683e-05      10.9047     -22.4267 
-2.88079e-05      5.84385     -171.538 
0.000101661      9.37630      115.255 
-1.46728e-05      14.1862      135.855 
4.24472e-05      5.78096      160.812 
-4.09661e-05      3.27333     -153.124 
0.000228820      8.36498     -27.7880 
1.45551e-05      12.7078      49.3415 
1.44883e-05      12.8440     -132.035 
4.06944e-05      9.20207     -100.772 
-1.43368e-05      2.59969      72.5483 
-4.02365e-05      6.66167      169.971 
9.77295e-05      13.5061     -134.820 
-7.31195e-05      4.68005      67.3780 
-8.88769e-05      7.99685     -127.788 
3.99357e-05      5.90339      51.1866 
0.000208753      12.1121      32.4554 
-0.000310207      11.5069     -34.8788 
6.74692e-05      12.8512      49.4187 
