! Center RA: 12 21 31.69052,  Dec: +28 13 58.50011 (2000.0)
! Established model.
! Flux (Jy) Radius (mas)  Theta (deg)  Major FWHM (mas)  Axial ratio   Phi (deg) T \
! Freq (Hz)     SpecIndex
 0.0793225    0.0286526      135.000 
 0.0169291    0.0446338      153.004 
 0.0187499    0.0562440      135.000 
 0.0169816     0.280627      85.8598 
0.00151196    0.0896014      116.350 
0.00500041     0.101837      101.476 
 0.0293739     0.121759      99.5784 
 0.0468317     0.279894      90.0000 
 0.0422859    0.0202604      180.000 
 0.0200766     0.141777      98.2159 
 0.0136691     0.140322      90.0000 
0.00615284     0.259634      90.0000 
0.00404549    0.0286526     -135.000 
0.00363339     0.280627      94.1402 
0.000957540     0.120062      90.0000 
0.00190985     0.300838      93.8616 
0.000196525    0.0397705      90.0000 
0.00228333    0.0202604      90.0000 
0.00533767     0.159832      90.0000 
0.000176791     0.320306      93.6266 
0.000515519     0.322129      97.0919 
0.000494107     0.342244      96.6731 
0.00160112     0.240977      85.1771 
0.000159337     0.362375      96.3009 
0.000312021     0.381773      95.9795 
0.00275410      0.00000      0.00000 
0.000152826     0.384412      98.9843 
0.00115040     0.404436      98.5360 
0.00208604     0.424483      98.1301 
0.00260950     0.180093      90.0000 
0.000460106     0.240124      90.0000 
0.00334846    0.0202604     -90.0000 
0.00229511     0.443806      97.7739 
0.000109087     0.260423      94.4620 
0.000682424     0.282706      98.0871 
0.000584246    0.0202604      0.00000 
0.000752556     0.804984      104.412 
8.72018e-05     0.306099      101.310 
0.000625810     0.310708      104.976 
0.00371071    0.0286526     -45.0000 
0.00106731     0.441522      95.1680 
0.00205684     0.810060      105.749 
0.000565523     0.786103      104.766 
0.000507843     0.316312      108.392 
0.000264428     0.561200      94.0638 
0.000246967     0.581411      93.9223 
0.000547106     0.440193      92.6380 
0.000116769     0.295127      61.6104 
0.00102288     0.583147      95.9087 
0.000167508     0.781185      103.329 
0.000277701     0.420705      92.7603 
0.000657875     0.420217      90.0000 
0.000259876     0.322315      60.2717 
0.000256884     0.341468      110.586 
0.000585714     0.835176      106.709 
0.000472758     0.756949      102.190 
5.02324e-05     0.912370      105.259 
0.000692786     0.936427      106.097 
4.84432e-05     0.323277      111.801 
9.39698e-05     0.931206      104.943 
0.000226490     0.332828      57.2415 
0.000177253     0.349107      113.700 
8.80996e-05     0.420705      87.2397 
0.000446922     0.605655      97.6181 
7.26269e-05     0.585580      97.8809 
0.000279484     0.247514      104.036 
0.000278035     0.608549      99.4391 
0.000515503     0.223431      100.253 
0.000303435     0.627803      99.1471 
0.000205633     0.647814      98.8622 
0.000492486     0.671167      100.305 
0.00102964     0.204262      101.227 
0.000592257     0.690371      100.015 
9.89703e-05     0.829578      105.369 
0.000387534     0.854601      106.319 
0.000590035     0.873342      105.959 
0.000233937     0.181229      96.4188 
0.000137645     0.399956      90.0000 
0.000133855     0.892839      105.601 
0.000742350     0.161111      97.2243 
0.000130008     0.714035      101.334 
0.000476579     0.917698      106.434 
0.000126540     0.266484      103.019 
0.000207951     0.400469      87.1001 
8.15431e-05     0.737890      102.510 
4.10772e-05     0.291183      106.006 
0.000159717    0.0286526      45.0000 
3.91502e-05     0.761484      103.680 
0.000180840     0.401929      84.3213 
0.000318519     0.961610      106.922 
3.59426e-05     0.271765      107.184 
6.72617e-05     0.483220      114.495 
0.000284886     0.986983      107.705 
3.31465e-05     0.331336      64.9439 
6.34518e-05     0.404436      81.4640 
0.000181976     0.340058      61.9647 
9.28443e-05     0.474259      117.619 
0.000187243      1.01158      108.422 
2.95425e-05     0.422095      84.5935 
0.000189501     0.483985      119.745 
0.000200963     0.624998      97.3810 
0.00131253      1.51168      107.715 
0.000106205     0.424483      81.8699 
0.000285113      1.03082      108.066 
0.000179442     0.350038      59.0362 
0.000167194     0.860287      107.566 
0.000115932     0.427819      79.1828 
0.000242617     0.493955      121.710 
0.000241783      1.05645      108.770 
0.000179904    0.0397705     -90.0000 
0.000255582     0.360880      56.2769 
0.000585673      1.07494      108.435 
0.000415873     0.121759      80.4216 
0.000100927     0.431906      76.6398 
0.000332913    0.0446338     -116.996 
0.000458595     0.504899      123.666 
0.000237458      1.96994      102.898 
5.61261e-05     0.667840      98.5944 
5.38113e-05     0.878907      107.182 
3.35090e-05      1.53720      108.205 
8.40294e-05     0.437032      74.0546 
0.000563662     0.824622      75.9385 
5.03082e-05     0.942245      107.281 
3.18923e-05     0.603304      95.7106 
0.000144480      1.96568      102.344 
0.000387070     0.399956     -90.0000 
1.64358e-05     0.866617      108.843 
0.000240125     0.372066      53.7772 
0.000244097     0.885104      108.435 
0.000240845    0.0720098     -123.524 
0.000492237      1.98475      102.223 
0.000127332     0.322315      119.728 
9.80181e-05     0.443026      71.5344 
0.000101869      1.54340      108.893 
0.000102371      1.50564      106.981 
0.000334758     0.829578      74.6312 
0.000612015      1.76452      125.305 
0.000666290     0.400469     -87.1001 
0.000614665     0.516406      125.538 
3.49930e-05      1.50005      106.268 
0.000265043      1.03728      109.130 
3.24753e-05     0.580403      92.0005 
0.000112495      1.55008      109.602 
0.000357022     0.891718      109.670 
6.46185e-05      1.49450      105.523 
0.000160570     0.449587      69.1753 
9.42961e-05      1.48921      104.771 
9.77140e-06     0.710331      99.7310 
0.000192192      1.20859      61.3186 
0.000131718    0.0848966     -135.000 
0.000174036     0.355922      51.8496 
0.000166607      1.55700      110.304 
8.88894e-06     0.687137      98.3513 
0.000427175      1.49930      103.104 
9.70852e-05      1.21844      60.4827 
0.000494003      1.98055      101.651 
7.73861e-06      1.33715      55.3557 
9.25908e-05      1.37659      54.4732 
5.15244e-05      1.09418      108.099 
9.60913e-05     0.500058      126.887 
7.29022e-05     0.332828      122.759 
0.000190464      1.38846      53.7928 
0.000215640      1.56387      110.974 
0.000191846     0.457182      66.8014 
1.78880e-05     0.100252     -143.216 
0.000273518     0.849131      74.9936 
7.04537e-05     0.113549     -135.000 
0.000119773     0.554452      154.337 
5.17828e-05      1.22574      61.7563 
4.05528e-05     0.381773     -84.0205 
8.27342e-05      1.06314      109.803 
2.20765e-05     0.107434      68.2729 
0.000195777     0.366905     -60.6039 
0.000156410      1.21628      62.5971 
0.000176496      1.40007      53.1485 
4.43138e-06     0.189835      108.435 
0.000102603      1.08152      109.453 
0.000201011     0.572781      155.214 
2.05907e-05     0.215843      111.838 
8.86482e-05     0.880267      111.293 
4.42214e-05     0.128090     -141.183 
3.33747e-05     0.560155      87.9272 
7.51801e-05      1.54497      111.243 
-0.000108679      1.34537      48.0294 
0.000143894      1.41232      52.4908 
-6.43835e-05     0.672210      143.488 
3.00495e-05      1.30771      66.5683 
2.08456e-05      1.16658      59.0299 
-9.67553e-05      1.33240      48.6532 
5.48286e-05     0.591236      156.038 
4.64207e-06      1.57124      111.664 
-3.53557e-05     0.656037      142.435 
4.36194e-06      1.10064      109.102 
-4.31526e-06      1.88396      127.230 
0.000551095      5.92064     -89.0341 
0.000505327      8.58635     -110.167 
0.000567037      10.1429      63.7894 
0.000410922      4.63483      164.227 
0.000159572      8.48223     -31.4036 
0.000337286      13.1646      50.2379 
-0.000361643      6.27328      110.919 
-0.000421923      10.3549      171.448 
0.000106811      9.09072      6.06025 
7.72331e-05      8.18406     -132.228 
7.59427e-05      8.49953     -31.3325 
0.000245662      7.35548      128.709 
-0.000147602      10.6271     -69.2782 
-0.000399665      11.0027      135.293 
0.000208374      9.11086      6.04680 
0.000109197      9.42752     -12.6203 
0.000176095      6.33777     -72.3631 
-0.000323108      10.9669      128.856 
0.000260761      8.19718     -132.329 
0.000325202      10.7494      110.929 
-0.000228411      8.22371      69.0529 
0.000194943      9.87487     -65.9787 
-0.000254483      8.97989      153.546 
0.000228805      9.62412      26.1375 
-0.000133255      11.3841      135.072 
-0.000130981      5.79695     -168.456 
-0.000253086      4.98153     -137.277 
0.000191585      8.47618     -31.5892 
0.000219698      8.80463     -160.907 
-0.000131029      7.86917      6.42225 
-9.70724e-05      6.07450      124.267 
0.000161858      9.44729     -12.5935 
0.000220772      11.2257     -51.2929 
-0.000126987      10.0126     -13.3989 
-9.63494e-05      10.6199     -69.3805 
9.55773e-05      4.80557      30.5173 
6.49996e-05      11.1659     -60.7270 
9.33245e-05      8.17440     -144.558 
-9.59973e-05      12.1915      48.9906 
-6.36752e-05      5.54707     -169.824 
-0.000123485      8.19071      67.0054 
-0.000184216      3.89683      119.853 
9.34148e-05      3.22914     -32.6080 
-0.000151761      7.25432      116.000 
0.000179849      14.2570     -45.9084 
0.000121943      1.81848      119.654 
0.000121618      6.34496     -72.7672 
-0.000122351      7.89816      9.03007 
-0.000151513      3.28172      6.64401 
-3.18545e-05      7.50592     -23.5589 
0.000119167      7.42308     -91.6973 
-6.10914e-05      11.3444     -136.142 
0.000147617      13.1931      50.2266 
-5.98234e-05      4.32158     -20.0239 
-8.95359e-05      9.48907     -83.1009 
3.11478e-05      2.12167     -98.1330 
0.000176925      14.3405      44.5463 
8.89144e-05      8.92190     -93.9836 
0.000147489      5.73680     -151.474 
-8.85228e-05      7.51575     -23.3578 
3.07219e-05      9.70978     -61.5871 
3.06830e-05      6.86031     -15.2128 
5.90639e-05      4.64816      164.532 
5.90503e-05      5.97689     -50.0268 
-0.000146490      8.04181      84.1463 
-5.78976e-05      11.1890     -63.3422 
-3.00723e-05      12.1924     -50.5917 
2.99037e-05      8.92502     -56.2378 
-5.85334e-05      7.44616     -31.0420 
8.70093e-05      10.5366      116.125 
2.97502e-05      6.07530     -154.872 
5.80898e-05      7.85540     -71.7520 
2.95135e-05      4.72221      74.0246 
8.62060e-05      9.56112      153.542 
2.94813e-05      5.76433     -124.681 
-2.93618e-05      4.67704     -175.094 
-5.75947e-05      6.71404     -9.60550 
5.72364e-05      9.02481      139.674 
8.55296e-05      9.46284     -12.4514 
-2.91419e-05      8.67442     -100.094 
2.90920e-05      11.2095     -27.7521 
-2.90401e-05      11.1981     -63.2495 
-5.68839e-05      10.6345     -153.050 
-2.89946e-05      5.57923      107.526 
5.69225e-05      6.08393     -154.699 
2.88314e-05      2.14099     -98.0591 
-2.88203e-05      6.08614      80.3542 
-5.66672e-05      7.50652     -119.704 
-5.67264e-05      9.72394      101.750 
-2.86641e-05      7.13455      74.0546 
2.86007e-05      6.65527     -158.677 
-2.85716e-05      12.1892     -50.4604 
5.64946e-05      9.60594      26.1907 
-2.84740e-05      7.87815      9.05320 
-2.83894e-05      12.2048      48.9188 
9.24492e-05      1.67120     -78.9726 
0.000205528      13.4218     -40.4060 
2.81728e-05      11.1758     -60.6364 
2.81442e-05      9.01077     -164.421 
-2.81378e-05      5.42914     -142.034 
2.80564e-05      11.9992     -46.8904 
2.80197e-05      10.1014     -172.719 
-2.79904e-05      10.6260     -59.3312 
2.78024e-05      3.46020      72.5081 
2.76811e-05      9.70128     -61.4288 
0.000335370      3.38042     -144.140 
-0.000253826      11.9805     -125.283 
0.000197660      5.05428     -171.582 
-7.59496e-05      11.9922     -125.362 
8.56601e-05      6.67447      117.870 
-0.000231859      5.44919     -42.7678 
-0.000155807      7.71740      55.2375 
0.000191220      2.42669     -94.2560 
-0.000109600      9.79414      68.9363 
-0.000145435      10.0306      49.6088 
0.000141618      9.23609      66.6572 
9.94806e-05      9.35384     -61.2432 
5.31994e-05      8.53090     -171.645 
0.000219039      11.6956     -44.9324 
-0.000161703      10.1364     -69.9191 
0.000209231      2.79590      33.9161 
7.51163e-05      8.21141      173.567 
-9.83820e-05      11.1595     -24.6815 
-0.000137279      8.14148      111.016 
-0.000289046      2.60318     -63.0361 
0.000123904      12.0458      35.8783 
-0.000263047      10.6092     -162.897 
2.51892e-05      6.68396      118.024 
-0.000132062      9.78688      69.0470 
-4.52929e-05      10.1173     -69.8797 
-4.77652e-05      7.73405      55.3231 
-4.81959e-05      6.38543     -96.8369 
0.000244685      10.5364      116.372 
4.69083e-05      9.99882      76.9358 
0.000125080      9.05214      44.1066 
-9.83172e-05      9.18082     -12.5811 
0.000129835      12.2405      37.4326 
-7.54512e-05      9.28038      98.4249 
9.00115e-05      10.9212      116.658 
-0.000204870      7.91289     -39.5670 
-0.000110271      9.05144      134.463 
8.69083e-05      11.3502      61.1305 
-0.000208320      11.6450      133.123 
0.000126128      8.27749      156.656 
-8.51288e-05      7.07159      17.6159 
4.38845e-05      5.03498     -171.550 
-4.29926e-05      7.87101     -23.8305 
-0.000102617      7.39674      45.3288 
-4.01890e-05      10.0289      49.4485 
-4.17621e-05      7.54197      85.5891 
2.25296e-05      3.60086    -0.955239 
2.24272e-05      8.51086     -171.625 
-9.85092e-05      8.48283     -122.681 
4.34817e-05      8.13214     -44.7009 
4.32482e-05      13.5336      45.1797 
2.21818e-05      8.61071      119.957 
0.000139949      13.0241      39.7054 
4.16284e-05      13.6622     -44.4059 
-7.76288e-05      9.22546      145.689 
3.98471e-05      9.00962      152.069 
2.18448e-05      11.1425     -147.908 
-4.03683e-05      6.36531     -96.8586 
2.15587e-05      10.0686     -108.290 
2.15597e-05      10.5456      116.224 
5.68859e-05      12.7281      38.9410 
0.000181600      8.60099      119.844 
0.000131564      12.8810      37.4921 
-2.14136e-05      8.15289      37.8255 
-0.000111356      3.46454     -129.842 
2.12948e-05      6.01035      13.6632 
4.02369e-05      3.48066     -144.113 
-0.000130397      2.90662      79.6938 
0.000126468      5.62546      131.393 
0.000204463      9.95893      61.8419 
-5.84191e-05      5.92840     -129.113 
-0.000161148      6.51442      172.594 
-0.000220944      9.06591      134.373 
-0.000112864      8.21946     -63.5613 
0.000140581      12.5756     -139.062 
2.05539e-05      3.62076     -1.27066 
-9.03078e-05      4.31666     -159.379 
-3.98117e-05      10.1562      119.491 
-0.000165425      8.80303     -157.280 
-7.41205e-05      7.70586      55.3613 
-5.63480e-05      8.16420      36.5350 
-7.34328e-05      9.90340     -96.4955 
7.06729e-05      7.45039     -71.8552 
3.87013e-05      6.86433     -85.1526 
5.58173e-05      8.14602     -44.6044 
-5.65034e-05      9.47280     -22.9924 
5.39478e-05      10.8557     -19.7012 
9.44130e-05      9.99426      77.0489 
0.000121387      10.0879     -108.254 
7.23814e-05      2.42527     -93.7787 
-5.45839e-05      5.43545     -42.6110 
5.32584e-05      11.1260     -147.855 
-1.94888e-05      10.1470     -11.0208 
-1.94138e-05      11.3135      135.000 
3.78613e-05      6.76381     -91.8628 
6.68674e-05      6.00577      13.4824 
3.71490e-05      10.9303      116.753 
5.26437e-05      13.5341      45.0606 
-0.000167428      8.02103      89.1423 
1.90221e-05      3.60125     -1.27754 
-1.88953e-05      7.98183      35.7193 
0.000188894      9.42184     -78.1191 
9.54830e-05      5.01494     -171.516 
-5.27061e-05      2.25220     -52.2138 
-1.87554e-05      7.34457     -56.4382 
-0.000340617      10.1294     -70.0267 
1.85491e-05      7.45994      26.0831 
6.65690e-05      11.3799      62.1271 
0.000101759      4.33798      64.0245 
-7.87450e-05      11.7492     -142.332 
9.59035e-05      4.79855      114.108 
6.62661e-05      5.32381      47.7421 
0.000183793      12.0080     -45.7418 
-1.81432e-05      11.5998      133.603 
-6.46186e-05      10.1310     -11.1551 
-0.000127752      10.1467      119.395 
6.67736e-05      8.26948      156.785 
5.20548e-05      12.8196      50.6986 
-0.000202745      11.9970     -125.227 
-9.40887e-05      3.20720     -176.069 
-6.57752e-05      13.6081     -46.1908 
7.72585e-05      6.76450     -92.0343 
-6.63027e-05      11.2056      133.266 
1.75975e-05      11.8165      52.7029 
-1.75714e-05      7.97725      35.9224 
-3.33685e-05      7.32770     -56.3506 
-4.96897e-05      2.48893     -164.615 
0.000126780      12.2123      41.5476 
4.87687e-05      9.33545     -123.552 
3.31738e-05      3.50851     -144.049 
7.75534e-05      7.50457      26.0885 
0.000154334      6.88452     -85.1669 
4.88238e-05      6.93524      95.7939 
4.75306e-05      5.31426     -107.071 
0.000175437      8.00469      45.0000 
-1.69474e-05      5.28387      7.39247 
-8.96180e-05      9.30524     -45.1732 
-1.68973e-05      10.2861     -63.1882 
0.000124345      6.60331     -91.9081 
-1.68174e-05      10.3187      69.1070 
3.27453e-05      13.0396      39.6485 
7.52302e-05      11.9978     -46.7563 
9.28460e-05      10.8949     -46.7834 
-3.05077e-05      9.64529      100.634 
3.21681e-05      7.88087     -72.1171 
7.64863e-05      10.9391      116.845 
-7.42968e-05      5.91327     -129.232 
-0.000205425      10.3035     -63.2371 
-3.14289e-05      4.96819     -9.50216 
1.64158e-05      5.06622     -112.512 
-8.95379e-05      8.09239      81.3282 
0.000211429      9.94973      61.9410 
8.74463e-05      9.01080      113.551 
-3.16115e-05      7.92852     -39.4737 
-2.98803e-05      6.51396     -98.6528 
5.82448e-05      9.06573      44.1951 
-0.000118637      8.81088     -157.158 
6.16672e-05      11.5427     -119.365 
8.99487e-05      12.3203      43.8821 
-1.60409e-05      8.87298      63.7817 
-5.98091e-05      8.44846     -65.3766 
9.73433e-05      9.72137      36.0446 
0.000173510      12.8475      50.6838 
-0.000106605      12.2569      50.9611 
-0.000109424      10.2998      69.0668 
5.94497e-05      10.6734      154.828 
6.00875e-05      11.0523      143.462 
-2.97553e-05      10.0157      49.5365 
0.000287445      12.7007      38.9278 
5.84821e-05      5.04751     -112.600 
-3.02547e-05      2.00068      88.2806 
-4.15127e-05      2.88385      80.0205 
-1.55507e-05      9.60911      64.8758 
9.36718e-05      12.5048      143.715 
-1.55166e-05      7.69437      55.4854 
5.40001e-05      8.45805     -44.2344 
-0.000149257      9.45475     -156.039 
6.75580e-05      12.8286     -135.948 
0.000139569      10.4666      125.511 
3.97322e-05      12.8687      37.4205 
1.53517e-05      6.31206     -36.1070 
6.60121e-05      8.62762      119.892 
-0.000205720      9.85788      117.554 
-1.53292e-05      7.05845      17.8224 
1.53001e-05      2.85903     -132.724 
-4.39265e-05      9.84875      130.225 
0.000391344      13.4086     -40.3401 
9.02500e-05      7.96558     -163.066 
9.23636e-05      11.0984     -147.884 
0.000151397      3.82197      157.866 
-1.51456e-05      5.44983     -42.4722 
5.89486e-05      9.50636     -169.944 
-1.51616e-05      5.26378      7.42084 
-1.50790e-05      8.13451      110.888 
1.50677e-05      5.70024      143.129 
-4.40806e-05      10.3769      149.925 
0.000104805      9.96982      16.0710 
-1.50325e-05      6.53399     -98.6261 
-0.000188106      9.59077      64.8244 
-2.89521e-05      2.37568     -45.6783 
6.95483e-05      9.11179     -125.261 
-0.000112197      11.1457      32.6940 
4.10659e-05      8.77515     -152.736 
-0.000111418      11.1918      133.191 
2.78075e-05      7.86159     -72.0718 
-8.12754e-05      8.80507      94.3010 
