! Center RA: 12 21 31.69052,  Dec: +28 13 58.50011 (2000.0)
! Established model.
! Flux (Jy) Radius (mas)  Theta (deg)  Major FWHM (mas)  Axial ratio   Phi (deg) T \
! Freq (Hz)     SpecIndex
  0.133655      0.00000      0.00000 
 0.0690342    0.0202604      90.0000 
0.00121713    0.0600310      90.0000 
0.00490970    0.0828082      75.8378 
 0.0275806    0.0202604     -90.0000 
 0.0242057     0.101837      78.5245 
 0.0331254     0.259634      90.0000 
0.00427731     0.107434      68.2729 
0.00592855     0.126477      71.6725 
0.00186353     0.260423      85.5380 
0.00173396    0.0202604      0.00000 
 0.0165325    0.0286526     -45.0000 
 0.0201713     0.121759      80.4216 
0.00260973     0.280627      94.1402 
0.00397881    0.0446338     -63.0042 
0.00254816     0.279894      90.0000 
0.00217421     0.220795      84.7351 
0.000338139     0.201375      84.2257 
0.00573986     0.140322      90.0000 
0.00176482     0.240977      85.1771 
0.00344473     0.120062      90.0000 
0.00184321     0.300838      93.8616 
0.000942185    0.0286526      135.000 
0.00419299    0.0202604      180.000 
0.00246679     0.322129      97.0919 
0.00190900     0.243395      80.5958 
0.00191009     0.345185      100.015 
0.00106836     0.141777      98.2159 
0.00112103     0.121759      99.5784 
0.00338331     0.365154      99.4623 
0.000214811     0.116465      148.973 
0.000781823     0.134233      153.435 
0.000776639     0.100252      53.2159 
0.00153495    0.0720098     -56.4755 
0.000385429     0.200353      90.0000 
0.00131988     0.161111      97.2243 
0.000375057     0.247514      75.9638 
0.000368804     0.100252      36.7841 
0.00102281     0.152624      156.838 
0.00176845     0.181229      96.4188 
0.000525850     0.253192      71.5114 
0.00135683    0.0633577     -71.3505 
0.00248883     0.116465      31.0271 
0.00249679     0.384412      98.9843 
0.000598801     0.260038      67.4310 
0.00367386    0.0896014     -63.6495 
0.000754014     0.268467      63.4349 
0.00211181     0.170734      159.414 
0.00179428     0.184432      102.453 
0.000149440     0.164706      103.973 
0.000147308     0.201375      95.7743 
0.00133563     0.278118      59.6991 
0.00268914     0.404436      98.5360 
0.000622143     0.204262      101.227 
0.00197043     0.134233      26.5651 
0.000574645     0.304887      58.3833 
0.00150036    0.0828082     -75.8378 
0.000669645     0.422095      95.4065 
0.000117730     0.223431      100.253 
0.000550052     0.121759     -170.422 
0.000333788     0.501338      94.5500 
0.000431962     0.266484      103.019 
0.00102135     0.170734      110.586 
0.000820307     0.521537      94.3734 
0.000948594     0.430710      68.2171 
0.00166808     0.178866      153.327 
0.00238671     0.145849      15.8239 
0.00128123     0.288454      56.3513 
0.00128150     0.141777     -171.784 
0.000457482     0.291183      106.006 
0.00150933     0.541740      94.2100 
0.000267221     0.271765      107.184 
0.00215409     0.438632      65.7588 
0.000967529     0.161670      119.778 
0.000645609     0.407936      101.351 
0.000464529     0.297155      109.625 
0.00128641     0.300155      53.1301 
0.000574422     0.278155      111.026 
0.00120446     0.561200      94.0638 
0.00116427     0.116465     -58.9729 
0.000269144     0.161111     -172.776 
0.000892038     0.427819      100.817 
0.000743009     0.145849     -164.176 
0.000605266     0.188432      148.019 
0.000212414     0.854373      110.568 
0.000264117     0.866617      108.843 
0.000209538     0.581411      93.9223 
5.17054e-05     0.286050      114.817 
0.000157073     0.322129      82.9081 
0.000592978     0.342244      83.3269 
0.000418973     0.159832      90.0000 
0.000207477     0.360755      86.7805 
3.68745e-05     0.302778      82.4523 
0.000133913     0.282706      81.9129 
0.000386557     0.379696      90.0000 
0.000193846     0.141777      81.7841 
0.000127380     0.234065      110.062 
6.43506e-05     0.286260      77.8948 
6.32532e-05     0.262662      81.2912 
6.16123e-05     0.266484      76.9812 
0.000842811     0.641314      93.5554 
0.000293487     0.400469      92.8999 
6.06498e-05     0.241454      114.414 
5.99193e-05     0.271765      72.8159 
0.00176605    0.0848966     -135.000 
0.000108293     0.233573      120.932 
0.000110669     0.399956      90.0000 
5.54335e-05     0.152624      113.162 
0.000102515     0.172194      125.422 
0.000479326     0.791300      106.132 
5.08271e-05     0.400469      87.1001 
0.000403336     0.642889      95.3579 
0.000233876     0.184676      130.551 
9.58995e-05     0.401929      84.3213 
9.21870e-05     0.244605      125.006 
0.000135197     0.116465      58.9729 
4.63211e-05     0.404436      81.4640 
4.59529e-05     0.250509      61.3621 
0.000176003     0.407936      78.6487 
0.000211664    0.0720098     -123.524 
0.000172892     0.260826      57.4530 
0.000453037     0.797167      107.531 
4.36094e-05     0.169793      135.000 
0.000166724     0.621094      93.6713 
0.000272459     0.184676      139.449 
0.000160415     0.113549      45.0000 
0.000456295     0.815792      107.118 
0.000122603     0.412220      75.9891 
0.000116604     0.256296      128.581 
0.000302239     0.271820      53.9843 
0.000152840     0.622720      95.5320 
3.94101e-05     0.810060      105.749 
3.91173e-05     0.446997      100.348 
0.000149222     0.417588      73.2909 
0.000655802     0.941538      102.286 
3.74683e-05     0.271820      126.016 
0.000135060     0.423858      70.6669 
0.000345796     0.284207      129.321 
9.60421e-05     0.475398      104.628 
0.000128601     0.645096      97.1498 
6.65956e-05     0.199903      143.087 
0.000832382    0.0896014     -116.350 
0.000397255     0.284207      50.6787 
0.000126206     0.803259      108.858 
4.14849e-05     0.126477      18.3275 
0.000370759     0.961344      102.029 
8.90284e-05     0.791053      110.721 
0.000809845     0.829578      105.369 
0.000188109     0.780402      112.620 
2.77004e-05     0.205897      151.006 
2.70825e-05     0.325575      47.5220 
7.61522e-05     0.480914      106.965 
0.000295915     0.197181      155.971 
0.000308240     0.297458      47.6583 
0.000545353     0.984607      102.903 
0.000205230     0.788112      113.929 
9.45211e-05     0.161111      7.22432 
0.000136798     0.447333      63.3920 
0.000763627     0.849131      105.006 
2.38013e-05     0.411820      50.9163 
0.000111346     0.312731      129.841 
2.22189e-05     0.424884      48.7950 
0.000305278     0.181229      6.41879 
2.20368e-05     0.256296      51.4188 
0.000151444     0.769637      114.541 
0.000111516     0.512905      110.556 
0.000148605     0.410407      47.0005 
2.08298e-05     0.228306      52.0755 
0.000116112     0.465536      64.5089 
0.000293775     0.325575      132.478 
5.95363e-05     0.100252     -126.784 
0.000109370     0.269397      48.0484 
0.000182874      1.00899      103.768 
0.000135810     0.310934      45.0000 
7.47691e-05     0.101837     -101.476 
0.000107614     0.796545      115.261 
0.000258250     0.215843      158.162 
3.29913e-05     0.116465     -148.973 
8.33026e-05     0.209153      163.320 
0.000179401     0.491629      63.4349 
0.000132118     0.121759     -80.4216 
0.000408550      1.25286      114.523 
3.74397e-05     0.134233     -153.435 
0.000659351      1.00437      102.645 
9.57964e-05     0.536933      63.4349 
9.17363e-05     0.200353      0.00000 
0.000258463     0.424483      45.0000 
0.000341048     0.778270      115.898 
0.000181165     0.520365      112.645 
1.56140e-05     0.164706     -166.027 
4.40761e-05     0.152624     -156.838 
0.000315641     0.145849     -74.1761 
0.000125484     0.563176      62.5472 
0.000423561     0.219863      0.00000 
0.000122806     0.283342      45.0000 
1.40256e-05     0.545937      61.6032 
5.27989e-05     0.170734     -159.414 
0.000205257     0.572799      60.7486 
0.000430252     0.339586      135.000 
5.81154e-05     0.189835     -161.565 
0.000764129      1.27974      114.972 
6.93200e-05     0.209153     -163.320 
8.08901e-05     0.325575      42.4780 
9.67593e-05     0.528183      114.599 
0.000189058     0.438496      43.1971 
0.000203492     0.787330      117.224 
0.000128757     0.297458      42.3417 
9.47768e-05      1.02868      103.499 
0.000367501     0.638318      32.1767 
7.26963e-05     0.227911     -164.728 
4.18101e-05     0.582967      59.0109 
0.000280881     0.170734     -69.4145 
7.72338e-06     0.600426      60.0064 
6.78261e-05     0.610413      58.4202 
9.31123e-05     0.554452      115.663 
2.71299e-05     0.247514     -165.964 
0.000241962     0.240977     -4.82291 
1.24698e-05     0.665204      96.9326 
7.01590e-05     0.260423     -4.46202 
8.66607e-05     0.271765     -162.816 
7.42855e-05     0.796445      118.473 
3.26586e-05     0.621263      56.8282 
1.14031e-05     0.854601      106.319 
-0.000408593     0.377263     -32.0779 
9.74949e-06     0.687137      98.3513 
5.08797e-06     0.340220      40.2586 
0.000120546     0.312731      39.8408 
9.72644e-05     0.563176      117.453 
2.27946e-05     0.632576      55.2920 
0.000227596     0.178866     -63.3275 
0.000106964     0.806301      119.738 
3.67496e-05     0.643885      53.8646 
0.000179413     0.835176      106.709 
-0.000321663     0.366905     -29.3961 
9.05207e-05     0.327950      37.6565 
1.94832e-05     0.291183     -163.994 
6.06870e-05     0.100252     -143.216 
-0.000347711     0.591236      23.9625 
2.53046e-05     0.483220      65.5045 
-0.000233872      1.20887      106.331 
6.51754e-05      1.02414      102.397 
5.40430e-05     0.656037      52.4354 
0.000102488     0.220795     -5.26495 
-0.000108720     0.538237      132.005 
6.75299e-05     0.188432     -58.0188 
7.08555e-05     0.453478      41.4446 
7.11245e-05      1.02013      101.326 
4.34263e-05     0.344213      35.5958 
-7.52576e-05     0.523357      133.490 
2.93836e-05      1.27132      114.144 
2.20239e-05     0.205897     -61.0062 
-8.12524e-05     0.402700      153.435 
-5.47741e-05     0.821137      87.2239 
3.56152e-05     0.189835      161.565 
2.10311e-05     0.572799      119.251 
1.16512e-05     0.367178      135.000 
4.66776e-06     0.216445     -56.3099 
6.97081e-06     0.668581      51.0590 
-4.62243e-06      1.24505      119.856 
-2.31407e-06     0.402700     -153.435 
-0.000938933      6.60197      82.1674 
-0.000314052      9.13532      24.9947 
0.00119055      12.6888     -49.8599 
0.000603880      11.9407     -46.6271 
-0.000644887      9.96190      91.1524 
-0.000522855      8.71163      45.3699 
-0.000588762      9.10908      24.9311 
0.000545434      10.6196      72.3499 
-0.000165188      6.16627      165.150 
0.000411593      8.43091      169.891 
0.000442922      5.50997     -116.750 
-0.000530242      12.7056     -48.2535 
0.000490128      8.71357      100.048 
0.000156920      6.47741     -99.9599 
0.000387968      12.2874     -49.6219 
0.000522137      12.9455      142.279 
0.000104808      9.41999      53.3757 
0.000281959      1.62783      42.5153 
-0.000330152      5.04622      77.1727 
0.000423157      10.4932      162.358 
-0.000152802      11.1080     -114.352 
0.000465829      13.2428      48.1214 
-0.000329111      6.17130      164.975 
0.000282789      10.6206     -44.9256 
-0.000238748      7.99450      65.9370 
5.11499e-05      1.59976      42.4527 
-0.000148367      6.97668      62.7018 
-0.000186266      12.0688      50.1078 
-0.000194451      4.35635     -62.9627 
-0.000321736      12.6057     -40.8192 
0.000185014      9.43210      53.2769 
-0.000372128      7.65197     -65.4430 
-0.000270391      13.5203      135.481 
-0.000403344      11.0997     -114.257 
0.000273424      11.1541      137.470 
0.000447109      10.1023      70.4547 
4.79893e-05      9.90417      127.288 
-0.000312612      3.52494     -96.8466 
-0.000312614      10.1513      175.480 
0.000182167      9.89092      131.395 
0.000220425      8.45085      169.915 
9.31949e-05      9.96489     -53.9818 
-0.000266343      11.4322     -59.3968 
0.000303423      10.5768      32.0946 
4.71544e-05      6.61941     -54.9659 
0.000176853      4.40232      109.093 
4.68048e-05      10.2840     -121.806 
-0.000179820      6.95934      62.6282 
9.06094e-05      8.73002      99.8939 
0.000177405      9.92030      127.217 
-0.000131472      6.62130      82.1904 
0.000422593      6.60780     -55.1098 
-0.000174822      10.9477     -129.069 
0.000132055      7.58821      177.279 
-4.55665e-05      11.5558      59.5301 
-0.000174070      4.33832     -62.8410 
8.76819e-05      9.98128     -54.0502 
-8.61211e-05      8.64401     -36.8162 
-0.000128351      3.05129     -57.0447 
8.54996e-05      11.1397      137.402 
-8.62775e-05      7.17437      162.977 
0.000127764      7.17470      66.5103 
8.52248e-05      5.50088     -116.562 
-8.46625e-05      8.69741      45.4649 
-8.37200e-05      8.67940     -167.086 
8.37702e-05      7.10590     -80.1129 
-4.25229e-05      3.70776      140.469 
-0.000125057      7.63423     -65.3822 
-8.30543e-05      7.78128      91.0333 
-8.32671e-05      5.57932      173.203 
-4.22372e-05      3.76952      68.1944 
-8.29547e-05      6.96868      62.4802 
-4.20442e-05      9.74913      26.3027 
4.19934e-05      13.4282     -43.1296 
-4.18640e-05      5.01985     -123.631 
4.17686e-05      11.8923     -49.7732 
4.16722e-05      9.99319     -53.9562 
4.13819e-05      6.72400      124.823 
-4.12106e-05      7.10722     -149.753 
-4.11582e-05      10.2204      142.794 
4.11016e-05      8.73335      141.135 
-4.11237e-05      10.6921      141.608 
4.09103e-05      7.33522     -68.4032 
4.09561e-05      9.27048     -150.391 
-0.000266209      9.26833     -30.3289 
-0.000489508      7.32469      36.3381 
-0.000278421      5.99101      7.47751 
-0.000240807      10.5201      50.8621 
0.000200236      11.6644      37.1250 
-8.63129e-05      8.67588     -36.6588 
0.000335322      9.60491      75.5317 
0.000219275      4.70219      48.0984 
-0.000148152      9.04919     -36.0099 
0.000317469      10.3269     -29.5920 
0.000225532      9.62138     -105.308 
-0.000460402      8.12425     -128.704 
0.000118713      5.02664      156.799 
0.000342989      9.26114     -141.226 
0.000302718      11.6762      37.2013 
0.000117100      4.35875     -82.3526 
0.000233823      13.3665     -136.030 
0.000152538      9.24410      58.7164 
-0.000187040      12.0083      132.029 
-0.000105849      10.5324      50.7798 
-0.000355981      12.9088     -52.4893 
-0.000109804      8.58490     -160.255 
-3.85154e-05      8.87083     -34.6243 
7.17540e-05      3.54271      173.518 
-9.81766e-05      8.66380     -36.5513 
-0.000229151      7.08396      108.945 
0.000172016      11.7802      53.4228 
0.000137635      3.50809     -105.546 
-0.000100499      6.01110      7.45238 
-9.62990e-05      11.4418      144.893 
-0.000448097      11.7496     -34.5274 
0.000132666      5.89777      61.4361 
-0.000149288      8.36383     -142.773 
0.000166958      5.01869      157.012 
0.000425961      13.6067      138.812 
-0.000144786      6.68479      52.1679 
0.000191563      4.38156     -82.1252 
0.000135308      8.49001      169.962 
6.92405e-05      9.54473      115.705 
0.000258434      4.74127     -128.323 
6.86024e-05      8.55834      40.1632 
0.000132308      7.67311     -173.266 
6.63064e-05      8.55349     -102.834 
3.46920e-05      13.4038      138.509 
0.000314499      9.73130     -58.5309 
-6.33050e-05      7.65540      173.098 
-6.57244e-05      8.85479     -34.6961 
0.000328102      8.30617     -57.6868 
-0.000206865      9.98113      90.8055 
0.000120342      9.23359      58.8238 
0.000379672      8.76843     -72.8893 
3.38568e-05      5.77873      117.627 
-6.58897e-05      5.87178      53.1667 
-3.38018e-05      9.95988     -15.0121 
-6.35545e-05      9.25812     -30.2207 
-0.000170933      4.10016      89.7169 
0.000117682      9.39411      66.2750 
-6.22770e-05      11.1518     -47.1814 
-3.29008e-05      9.46056      167.052 
-0.000485012      8.73100     -158.078 
-6.30274e-05      8.60327     -160.299 
-8.88001e-05      3.56074      38.1620 
0.000180016      9.32015     -89.5064 
6.13488e-05      4.13276      175.564 
0.000328812      10.5890      162.523 
0.000316545      9.53628      115.599 
3.21990e-05      9.93110      162.658 
-8.93366e-05      9.94031     -15.0423 
3.19531e-05      9.55787      163.840 
6.19862e-05      5.20097     -105.155 
-0.000135815      12.0219      132.101 
-0.000233114      2.54875      63.4349 
-5.97007e-05      10.2510      39.9339 
-3.14427e-05      6.12133     -178.876 
0.000101541      8.57142      40.2667 
-0.000404039      9.53568     -67.0406 
0.000163915      7.33875     -67.9092 
-0.000187123      7.06480      108.999 
0.000260439      8.34145      170.200 
-0.000215967      8.18695      167.728 
3.08373e-05      9.87113      84.1841 
-0.000530185      8.28549      165.460 
-3.05591e-05      13.8801      133.191 
-5.91298e-05      7.78227     -133.128 
-0.000132705      5.85618      53.0523 
-0.000129805      3.57082     -85.5043 
0.000258200      11.3867     -64.0631 
3.02214e-05      8.76227     -172.129 
0.000299730      10.0157     -139.537 
0.000106707      9.90645      162.736 
2.99090e-05      4.88138      43.1749 
-2.98841e-05      10.5026      57.5203 
5.57101e-05      5.76971      117.455 
2.97650e-05      3.51337     -105.853 
-0.000178843      10.0059     -113.439 
-0.000108045      7.82210     -145.415 
-0.000154960      5.05364     -123.376 
0.000130695      13.9606     -43.8980 
-6.18987e-05      9.44082      167.024 
-5.42673e-05      11.0752     -113.974 
0.000237855      7.83186     -96.5966 
5.66305e-05      10.9685      152.174 
-0.000260640      11.9694     -36.0279 
8.34457e-05      4.04824     -72.4584 
-5.65363e-05      10.1405     -89.4361 
2.91740e-05      9.53842      163.806 
0.000322256      7.29628      150.973 
-0.000149032      8.96542     -29.5367 
5.63612e-05      3.51360     -111.013 
0.000148538      4.70177      1.71022 
8.75453e-05      7.67551     -173.116 
-2.89938e-05      5.39804      140.415 
2.87641e-05      9.95412     -104.427 
2.87658e-05      11.7760      53.2849 
2.87088e-05      10.6278      113.044 
0.000101984      4.78803     -83.7649 
-5.53934e-05      5.21287      144.054 
2.84760e-05      10.3752      116.563 
2.80389e-05      9.13232      158.547 
-5.39094e-05      8.04771      92.5652 
0.000120770      10.8452     -142.116 
0.000220410      8.24090     -173.028 
-2.79097e-05      7.16512     -4.80600 
-0.000297484      6.90931     -102.711 
5.12693e-05      5.88811      61.6092 
5.45459e-05      8.78234     -172.148 
8.76920e-05      13.8057      137.877 
2.76494e-05      9.86909      84.3011 
9.37161e-05      5.19590     -104.947 
0.000271750      11.3876     -149.383 
7.63117e-05      5.23318      154.412 
7.61071e-05      9.60005      75.6444 
7.33522e-05      12.0616     -39.5500 
-2.72152e-05      5.41309      140.546 
0.000210991      5.92955     -146.417 
-0.000116461      10.5827      69.3046 
0.000128305      12.4182      44.0868 
-9.67141e-05      10.5358      50.9317 
0.000300290      6.60402     -2.08375 
-0.000224637      13.8387      133.126 
0.000198791      5.72484     -12.9214 
5.20360e-05      2.62052      79.8903 
-0.000225978      11.1805     -47.1758 
-0.000155853      7.79707     -133.027 
-0.000196271      10.4984      57.7628 
-0.000127144      12.7591      128.829 
7.14399e-05      5.33581      75.2368 
2.65365e-05      8.47006      169.939 
7.42705e-05      9.24535     -141.148 
-0.000180566      10.3391     -21.8006 
7.30389e-05      10.4024      116.613 
0.000329902      10.6662      109.728 
-2.63301e-05      9.06558     -35.9346 
0.000365628      8.52237     -80.2723 
0.000163959      9.30083     -89.3852 
-0.000574810      14.4674     -45.0546 
2.60977e-05      4.86129     -35.4565 
4.97349e-05      3.00854     -164.581 
7.95147e-05      9.08789      158.575 
-0.000347346      8.96261     -144.535 
9.71024e-05      12.1843      128.469 
2.58119e-05      13.3797     -45.7271 
