! Center RA: 12 21 31.69052,  Dec: +28 13 58.50011 (2000.0)
! Established model.
! Flux (Jy) Radius (mas)  Theta (deg)  Major FWHM (mas)  Axial ratio   Phi (deg) T \
! Freq (Hz)     SpecIndex
  0.107775      0.00000      0.00000 
 0.0393084    0.0202604      0.00000 
 0.0484636    0.0202604     -90.0000 
 0.0115596    0.0896014      63.6495 
 0.0172848     0.101837      78.5245 
0.00951609     0.107434      68.2729 
 0.0199053    0.0397705     -90.0000 
0.00961347     0.121759      80.4216 
0.00734587     0.240977      94.8229 
0.00825100     0.260423      94.4620 
0.000700426     0.282706      98.0871 
0.000229577     0.404436      98.5360 
0.00563963     0.140322      90.0000 
0.000303566     0.141777      98.2159 
0.00227404     0.120062      90.0000 
0.00451001     0.401929      95.6787 
0.000473738     0.161111      97.2243 
0.00549818     0.424483      98.1301 
0.00117375     0.220795      95.2649 
0.00100555     0.446997      100.348 
0.000650281     0.541740      94.2100 
0.00120508     0.381773      95.9795 
0.000160779     0.262662      98.7088 
0.00175140     0.560155      92.0728 
0.000297610     0.470689      102.241 
0.00338448     0.362375      96.3009 
0.000694000     0.561200      94.0638 
0.000671340     0.475398      104.628 
0.000135881     0.201375      95.7743 
0.00461640    0.0600310     -90.0000 
0.00255647     0.580403      92.0005 
0.000622847     0.480914      106.965 
0.00223667     0.159832      90.0000 
0.000765934     0.581411      93.9223 
0.000868759     0.500328      106.288 
0.00179007     0.506146      108.408 
0.000409558     0.486965      109.161 
0.000491999     0.601626      93.7903 
0.00269945    0.0802914     -90.0000 
0.000260260     0.622720      95.5320 
0.000370811     0.645096      97.1498 
0.00136622    0.0848966      45.0000 
0.000341826     0.559789      90.0000 
0.000516268     0.665204      96.9326 
0.000752574     0.493986      111.381 
0.000429308     0.560155      87.9272 
0.000919733     0.524694      107.735 
0.000851180     0.667840      98.5944 
0.000631046     0.585580      97.8809 
0.000292493     0.455823      105.272 
0.000836447     0.437032      105.945 
0.00152188     0.605655      97.6181 
0.000186668     0.431906      103.360 
0.000444061     0.412220      104.011 
0.00113444    0.0998015      90.0000 
0.000236963     0.608549      99.4391 
0.000371166     0.624998      97.3810 
7.38896e-05     0.373757      105.487 
7.13814e-05     0.354273      106.362 
0.000209544     0.627803      99.1471 
0.000274539    0.0446338      63.0042 
6.90859e-05     0.334882      107.339 
0.000315984     0.316312      108.392 
0.000327170     0.647814      98.8622 
0.000146619    0.0720098      56.4755 
0.000110678     0.367749      112.431 
0.000271344     0.531217      109.817 
5.59692e-05     0.297155      109.625 
0.000215166     0.858779      102.105 
0.000498977     0.349107      113.700 
5.45171e-05     0.690371      100.015 
0.000253528     0.878599      101.828 
0.000329718     0.898439      101.563 
0.000242124     0.512905      110.556 
0.000601656      2.47819      115.331 
0.000260796     0.917561      101.319 
0.000373638     0.331336      115.056 
0.00149762    0.0998015     -90.0000 
4.21282e-05     0.600651      91.9330 
4.19364e-05     0.475177      112.272 
0.000600351      2.47321      120.081 
0.000163925     0.937436      101.076 
8.11580e-05     0.580049      90.0000 
4.08571e-05     0.375627      115.183 
0.000156361     0.957327      100.843 
3.94489e-05     0.761484      103.680 
0.000336768      2.46959      114.906 
0.000291631     0.980435      101.792 
3.76783e-05     0.357396      116.565 
3.73257e-05     0.829578      105.369 
0.000144919     0.384685      117.915 
0.000528574      2.73159      113.748 
0.000105305     0.849131      105.006 
0.000138542     0.540658      87.8524 
0.000414993      1.00028      101.554 
3.48730e-05     0.412159      119.085 
0.000200648      2.46112      114.479 
3.47316e-05     0.420705      92.7603 
3.43087e-05     0.394577      120.515 
0.000226907     0.421988      121.401 
3.33821e-05     0.867991      104.673 
0.000190698     0.420217      90.0000 
0.000331670     0.541740      85.7900 
0.000245922     0.854601      106.319 
0.000550647      2.45570      120.318 
0.000247183      2.99868      109.881 
0.000510681      2.45310      114.064 
6.07984e-05     0.520365      112.645 
0.000136978     0.873342      105.959 
0.000716804      2.30880      104.032 
0.000118395     0.432889      123.690 
0.000460728      3.01774      109.751 
0.000272635      1.00437      102.645 
0.000265515     0.420705      87.2397 
0.000789474      2.75763      113.970 
5.65215e-05     0.840993      107.982 
5.60513e-05     0.459977      124.364 
7.91995e-05     0.538423      111.846 
5.39656e-05     0.561200      85.9362 
0.000132324     0.444008      125.785 
8.07875e-05     0.817257      111.547 
0.000149854    0.0720098      33.5245 
7.64639e-05     0.805984      113.367 
0.000124751     0.543603      83.6598 
2.51162e-05     0.471709      126.396 
0.000273598      1.02414      102.397 
0.000257535      2.44491      113.630 
0.000456217     0.892839      105.601 
0.000164066     0.456152      127.850 
0.000735320      2.28445      103.680 
0.000714322      3.02465      110.112 
4.85162e-05     0.824622      112.808 
0.000611999     0.120062     -90.0000 
0.000407239     0.422095      84.5935 
0.00100761    0.0896014      26.3505 
0.000164233     0.564587      112.919 
0.000197747     0.562998      83.8791 
0.000135797     0.814232      114.676 
6.65207e-05      2.42902      120.153 
0.000106112     0.484006      128.327 
0.000602578      2.41825      113.383 
0.000253577      2.41152      120.395 
0.000687174      5.06115      107.000 
0.000245648     0.822896      115.958 
4.12868e-05      1.02868      103.499 
4.06740e-05     0.468857      129.806 
4.03232e-05      1.06630      113.209 
0.000236881     0.583147      84.0913 
0.000221347      1.08495      112.788 
0.000114620     0.496341      130.094 
3.60204e-05      1.04321      102.167 
1.80911e-05     0.481580      131.589 
0.000103991     0.509625      131.837 
0.00100141      2.74946      113.585 
0.000444826      2.26075      103.298 
0.000131876      2.39406      120.640 
0.000151192      1.75559      104.505 
0.000314265     0.572781      114.786 
0.000602469     0.101837     -78.5245 
0.000484868     0.424483      81.8699 
0.000113031      1.09265      113.731 
0.000108245      1.93047      103.167 
9.49762e-05      1.03927      101.115 
0.000180403     0.250509     -118.638 
0.000190189      2.78409      114.168 
0.000123515      1.07414      114.166 
3.25754e-05     0.523357      133.490 
0.000267579     0.603304      84.2894 
0.000243291     0.668581      141.059 
0.000263118      3.04298      109.986 
0.000198194      1.73187      104.042 
0.000505550      2.11299      107.058 
7.45124e-05      2.36696      120.459 
1.51717e-05     0.841160      115.353 
4.25320e-05     0.495261      133.342 
0.000247266      2.29101      123.971 
0.000547025      2.92510      115.513 
0.000413373      1.08259      115.144 
2.84963e-05      1.03556      100.015 
0.000189755      1.72707      103.390 
0.000139205      2.37730      120.880 
0.000242403     0.684458      142.125 
0.000204331      1.05551      99.8239 
1.36679e-05      1.80869      108.029 
0.000406776     0.233573     -120.932 
0.000109826      1.81507      108.637 
0.000115809     0.887605      104.342 
0.000645075      2.26550      103.797 
0.000118093     0.622720      84.4680 
1.29776e-05      2.50090      120.250 
5.02072e-05      3.06202      109.856 
0.000123231     0.641314      86.4446 
8.13275e-05     0.466621      133.241 
0.000416951     0.107434      21.7271 
0.000120032      1.72249      102.735 
6.18957e-05     0.831621      117.166 
0.000197237      3.26176      113.109 
0.000256342      2.41057      112.957 
1.18089e-05      3.09946      109.606 
0.000159120      2.98045      106.363 
8.58518e-05      2.34952      120.710 
0.000128474      1.71829      102.100 
0.000190659     0.699961      143.106 
5.41706e-05      3.27255      112.643 
0.000113241      1.79588      108.844 
0.000124568      1.82164      109.241 
3.99073e-05     0.585580      82.1191 
0.000115174     0.591236      113.962 
0.000450395      1.09135      116.107 
0.000266755      5.06711      107.219 
0.000156241      3.26947      113.423 
3.02718e-05     0.480727      135.000 
0.000238983     0.446997      79.6521 
0.000211935      1.05225      98.7368 
0.000144010      3.28041      112.970 
0.000373051      2.35993      121.132 
3.95182e-05      1.71416      101.438 
0.000187239     0.452074      135.000 
0.000438102      2.13237      106.898 
3.85001e-05     0.661537      86.5534 
0.000157295      2.27975      123.549 
0.000397479      1.48312      93.8584 
0.000101175      4.01115      106.811 
0.000126157      1.73329      101.310 
0.000243240      2.97501      106.003 
0.000102213     0.680152      88.2930 
4.61331e-05     0.882975      103.115 
0.000152498     0.568616      79.8913 
0.000304641      2.53776      110.294 
0.000224865     0.716267      144.079 
8.66902e-06      2.72350      113.358 
0.000243135      4.00534      106.534 
0.000317230     0.841065      118.394 
0.000193227      1.72943      100.652 
0.000298683      1.80253      109.453 
0.000249972      3.27758      113.748 
0.000211496     0.126477      18.3275 
0.000148033     0.260826     -122.547 
0.000130319     0.681013      86.6521 
4.90783e-05     0.427819      79.1828 
0.000182650      3.98111      106.344 
2.11743e-05      3.28286      112.186 
0.000344445      5.04178      107.068 
0.000115469      2.40274      112.513 
0.000274381      2.26289      123.832 
0.000248902      2.96949      105.627 
0.000145206      1.04946      97.6840 
0.000185931      1.10008      117.019 
0.000120419      3.29436      111.738 
0.000147367     0.450910      77.2126 
0.000213864      1.72593      100.015 
3.21548e-05      2.52798      120.424 
7.90611e-05      1.08207      117.507 
0.000133522     0.244605     -125.006 
3.55535e-05      2.89878      115.318 
0.000155297      2.27023      104.275 
-0.000933873      1.84038      91.2383 
2.29105e-05     0.812072      127.982 
9.35180e-05     0.701240      86.7487 
5.89943e-06      1.50334      93.8065 
0.000335136      1.52502      94.5155 
2.20059e-05      1.89476      100.958 
7.69390e-05     0.732771      145.008 
0.000182295      2.90751      115.679 
0.000226437      3.28579      114.071 
5.06818e-05     0.824695      129.091 
0.000321135      3.87057      108.059 
7.20106e-05      1.74251      99.2433 
0.000248496     0.145849      15.8239 
0.000244273      2.34261      121.389 
0.000126633      2.29418      104.645 
2.76580e-05      1.72252      99.3515 
4.18284e-05      3.27535      114.528 
5.65725e-05      1.73937      98.5845 
0.000199642      2.63196      106.787 
4.44302e-05     0.588572      80.2375 
2.99378e-05      1.89101      100.356 
6.98616e-05      4.10552      107.289 
0.000197263      1.82817      109.818 
9.22032e-05     0.809071      129.996 
0.000158041      1.02465      95.5895 
3.81725e-05     0.216445     -123.690 
0.000223565      2.15697      107.262 
1.79246e-05      1.73657      97.9480 
9.78643e-05      3.01270      110.606 
5.28291e-05      3.31319      111.609 
4.41576e-06      1.73388      97.2849 
8.77566e-06      1.73152      96.6446 
2.57961e-05      1.72929      95.9778 
2.34985e-05      2.53791      120.804 
0.000107128      1.74747      95.2479 
6.35053e-05     0.702680      85.0992 
0.000224385     0.572519      77.8948 
0.000323898      1.54447      94.4585 
5.14968e-05      2.42147      112.329 
6.15954e-05     0.401929     -84.3213 
7.28479e-05      3.30163      112.053 
8.08811e-05      2.96410      105.250 
0.000148082      1.74580      94.6103 
3.82442e-05      1.88748      99.7507 
6.27511e-05     0.424483      135.000 
7.90588e-05     0.384386     -128.660 
6.92745e-06     0.431906      76.6398 
7.03646e-06      2.70284      121.687 
0.000104976      4.11136      107.549 
0.000135774      2.71354      122.051 
3.28586e-05     0.822239      131.078 
7.59504e-05     0.807634      131.987 
1.10393e-05      3.97545      106.064 
8.68876e-06     0.759958      144.646 
0.000216230      1.74428      93.9469 
4.49517e-05      1.11816      116.548 
4.72751e-05      1.04481      95.4813 
1.53096e-05     0.545983      113.747 
3.03511e-05     0.399806     -126.913 
-0.000115904      1.47957      103.282 
1.99926e-05      2.77616      113.801 
4.20705e-05      3.29613      113.606 
-5.86894e-05      2.60187      124.662 
2.55535e-06      1.90671      99.6514 
1.68845e-05     0.858942      117.752 
2.15881e-05      1.77743      109.047 
9.61072e-06      5.03609      106.855 
4.72508e-06      2.96245      118.636 
4.65863e-06      1.13565      116.108 
-4.65531e-06      1.49483      102.348 
2.32955e-06      3.23806      116.405 
0.000963993      9.25461      147.443 
0.000877393      12.6864     -41.1005 
-0.000770308      9.88299      50.9971 
-0.000309794      10.2561      164.854 
-0.000661064      8.75494     -131.665 
0.000559834      8.37236     -153.008 
0.000895152      10.4761     -60.7433 
0.000699471      6.11065     -109.505 
-0.000426983      10.2757      164.884 
-0.000363702      3.30407      2.77273 
-0.000457391      3.12012     -159.355 
-0.000504416      13.0164      46.7426 
-0.000647857      10.9163      65.0785 
-0.000555505      9.97449     -95.9851 
0.000347545      9.25744     -137.454 
0.000101860      6.13628     -109.614 
-5.58669e-05      5.80239     -145.821 
-0.000402863      3.07285      174.774 
0.000263286      8.39051     -43.1627 
-5.55636e-05      11.2605      56.5937 
0.000255143      6.32565      47.1777 
-0.000105116      1.99503     -154.466 
-0.000395894      10.1481      24.6947 
-0.000344667      11.2497      56.6767 
-0.000385195      5.81854     -145.929 
0.000252247      10.2910      67.9705 
-0.000478117      12.3604      44.8696 
-0.000154034      10.6531      52.4004 
0.000239571      7.97794     -141.922 
0.000333752      9.04711     -65.3055 
0.000145343      6.65948     -38.6598 
0.000192151      11.3606      130.647 
0.000283380      2.10400     -65.8757 
0.000194410      9.23754      147.375 
0.000425343      12.7017     -41.0404 
0.000186698      10.9699     -113.760 
-0.000195036      6.90103     -135.000 
0.000277328      9.52912      10.1551 
-0.000274717      10.2894      165.017 
0.000184431      10.1977      102.918 
0.000277367      9.99819      3.44222 
-0.000140216      11.9812     -33.4243 
-0.000142306      9.90630      132.873 
0.000140760      2.97682      78.7637 
9.53244e-05      5.07088      156.774 
9.48188e-05      3.55989     -89.6739 
-0.000226390      3.72864     -82.9136 
0.000138445      7.90909      175.069 
-0.000138245      10.6654      52.3142 
-9.10912e-05      12.1914      38.2038 
0.000179508      8.40627     -42.8802 
-4.72990e-05      10.3234      165.184 
4.72140e-05      6.86372     -40.7440 
0.000224095      9.74513      141.249 
9.17971e-05      6.84364      71.2472 
0.000180215      7.87798     -99.9387 
0.000178980      10.3725     -161.915 
-0.000135355      9.55890      17.0310 
-0.000136626      9.48315     -93.9929 
-8.89485e-05      2.02139     -154.186 
-0.000177873      14.0315      43.8451 
-0.000134186      4.24004     -52.8543 
-0.000178084      6.87344     -135.000 
0.000131924      6.87497      70.9856 
0.000176600      3.54055     -89.3564 
-0.000132247      9.56193      43.9825 
4.51739e-05      3.37619      21.5413 
-0.000131789      9.92010      132.959 
8.80317e-05      9.47040     -59.2651 
0.000130192      6.15899      132.235 
4.41991e-05      5.08187      157.066 
-4.41402e-05      2.84540     -172.331 
-8.61640e-05      6.61875     -135.000 
4.35699e-05      10.0779      97.9865 
-8.60132e-05      9.50399     -94.1021 
4.34936e-05      8.28668     -130.302 
4.34908e-05      8.91324      111.732 
-4.34062e-05      2.36696      30.4591 
4.31285e-05      10.4860     -60.6467 
4.31355e-05      6.11774      116.816 
-4.28732e-05      10.4146     -100.512 
4.28041e-05      10.2801     -127.091 
4.23218e-05      10.4690     -60.5944 
0.000116805      6.68152      158.579 
-0.000226375      4.48512      72.6140 
-0.000136393      6.40914     -46.6415 
3.81716e-05      5.40296     -82.7713 
7.07928e-05      10.4749      115.930 
0.000169141      10.2510     -62.8347 
-0.000228597      7.69405      171.028 
0.000140389      5.40054     -82.9767 
0.000165580      8.73834     -65.9596 
0.000201839      6.65527      158.677 
3.62296e-05      9.91134      82.2288 
6.65217e-05      10.4652      116.074 
7.00085e-05      7.83892     -163.093 
0.000221863      6.89438      42.2959 
3.53721e-05      10.4511      114.900 
-6.88333e-05      4.56049     -170.663 
0.000219733      9.89127      82.2129 
-0.000154370      3.09060      164.611 
3.38474e-05      10.4695      114.853 
9.69517e-05      8.07394     -68.6455 
0.000140792      6.66267      158.515 
-6.49002e-05      10.0617      91.1410 
-0.000205310      12.2968      127.465 
9.28890e-05      7.85759     -163.135 
0.000249576      9.15296      61.9811 
-0.000442406      9.81364      35.7938 
0.000380725      5.38043     -82.9503 
-8.63713e-05      6.43727     -46.6390 
0.000117311      10.4610      114.752 
-0.000178065      5.37557      102.898 
6.13965e-05      7.12291      157.902 
-6.05462e-05      4.54050     -170.622 
0.000215965      6.31963     -114.295 
0.000182659      6.45070     -152.082 
-0.000111472      9.98784      77.7462 
0.000293862      11.2883      43.7099 
-0.000391982      10.0823      91.2495 
-0.000137074      4.33538     -106.346 
-0.000110606      5.38013      103.108 
-0.000302408      6.85930     -51.3911 
-5.65041e-05      10.2646      171.821 
-0.000252661      9.81474      45.3314 
-0.000177747      6.08846     -159.421 
2.93245e-05      7.22408      72.7678 
5.47204e-05      9.00154      95.4820 
0.000128700      12.9100      40.4763 
-0.000107466      5.97065     -43.3704 
5.29217e-05      10.4834      116.026 
2.78962e-05      8.76442     -65.8906 
-5.42982e-05      10.0223     -88.7430 
2.78656e-05      10.7664      151.483 
-5.50831e-05      12.0551      41.7046 
7.78861e-05      8.73856      95.3855 
5.12096e-05      10.2683     -62.8844 
-0.00100545      14.1581     -44.1411 
5.24065e-05      7.14169      157.963 
-9.82755e-05      7.71407      171.052 
0.000102254      7.66837      66.6461 
2.68994e-05      8.09281     -68.6978 
5.14047e-05      7.81387     -163.187 
-0.000420151      12.0400      41.7688 
0.000298757      10.5173      140.713 
0.000350206      9.88854      82.3292 
2.63646e-05      9.13974      111.571 
-0.000230093      9.36803      2.32289 
-2.62500e-05      4.31593     -55.5695 
0.000189437      10.1491     -129.242 
-0.000119085      12.4608      126.318 
-5.09418e-05      7.65079     -45.1073 
-0.000274492      11.7025     -32.2246 
-0.000191080      10.0819      91.1387 
-6.74444e-05      9.81910     -41.4495 
7.10713e-05      10.7486      151.431 
7.13682e-05      7.97181      53.1581 
-7.25455e-05      11.5171      32.8079 
6.96506e-05      9.97915     -56.6911 
9.29219e-05      8.97946      95.3657 
-0.000135813      11.7851      39.1469 
7.26498e-05      8.74769      112.872 
4.80503e-05      6.53068      48.3490 
2.52046e-05      8.18900     -49.8543 
-0.000319063      9.49699      96.2872 
4.79799e-05      6.87241     -69.5626 
-2.48312e-05      5.88211      29.0894 
-2.47989e-05      2.80850      54.2630 
2.47066e-05      9.90318     -117.549 
0.000214883      8.44628      106.931 
2.46705e-05      9.12160      111.616 
-8.64564e-05      10.0219     -88.8545 
0.000185263      10.4936     -39.8187 
-0.000280693      3.92053     -137.273 
-0.000134783      12.5164     -126.357 
0.000168958      6.95345     -73.2859 
-6.87619e-05      4.39874     -44.0807 
-0.000132119      5.94200     -43.3625 
4.57002e-05      6.90803      42.4202 
