! Center RA: 12 21 31.69052,  Dec: +28 13 58.50011 (2000.0)
! Established model.
! Flux (Jy) Radius (mas)  Theta (deg)  Major FWHM (mas)  Axial ratio   Phi (deg) T \
! Freq (Hz)     SpecIndex
 0.0996950      0.00000      0.00000 
 0.0184871    0.0300155     -90.0000 
 0.0114830     0.120062      90.0000 
0.00287247     0.240124      90.0000 
0.00588003     0.241993      97.1250 
0.00267966    0.0949173      108.435 
0.00628766     0.271802      96.3402 
0.00268347    0.0671167      116.565 
0.000240587    0.0424483      135.000 
0.00603094     0.123757      75.9638 
0.00280420    0.0424483     -45.0000 
0.00105987    0.0848966      135.000 
0.00510313    0.0848966     -45.0000 
0.000963627     0.276729      102.529 
0.000493139     0.108222      146.310 
0.000908349     0.371271      104.036 
0.00128386     0.400456      102.995 
0.000702889     0.247514      104.036 
0.000306479     0.319069      48.8141 
0.000366647     0.134233      153.435 
0.000398111     0.339586      45.0000 
0.00103417     0.408255      107.103 
0.000328484     0.301652      84.2894 
5.28483e-05     0.300155      90.0000 
0.000304876     0.153050      101.310 
0.000760684     0.330170      90.0000 
4.94871e-05     0.218516      105.945 
9.68243e-05     0.150077      90.0000 
0.000541997     0.256452      110.556 
0.000164023     0.365154      99.4623 
3.81438e-05     0.313371      73.3008 
0.000104880     0.323277      68.1986 
0.000348913     0.577359      98.9726 
0.000193742     0.612198      101.310 
0.000464458     0.324667      56.3099 
0.000900910     0.904209      95.7153 
0.000362915     0.788842      98.7544 
6.11346e-05     0.228591      113.199 
8.84195e-05     0.607026      98.5308 
0.000372582     0.268467      116.565 
5.83509e-05     0.770966      103.509 
0.000161643     0.778525      105.657 
7.79358e-05     0.134233      63.4349 
0.000217495     0.161638      158.199 
0.000443690      1.12916      72.9981 
0.000795431      1.32032      68.6702 
0.000165342     0.787156      107.761 
0.000372961     0.150077      36.8699 
0.000342503     0.573445      96.0090 
0.000842470      3.84979      111.965 
0.000918848     0.342229      52.1250 
0.000648015     0.189835      161.565 
0.000176747     0.796825      109.817 
0.000204504     0.283165      122.005 
0.000104899     0.671167      116.565 
0.000469208      3.53177      106.275 
8.46978e-05     0.793965      100.896 
5.37058e-05      1.13077      68.1845 
1.81924e-05     0.711563      117.646 
0.000279582     0.108222     -33.6901 
0.000885179      1.85726      58.8854 
0.000383725      1.13550      77.7915 
0.000251969      3.17968      116.323 
0.000184832      3.59881      118.917 
0.000183431      1.14227      66.7866 
0.000111907      3.87811      104.786 
0.000408340      14.2972      108.093 
6.56104e-05     0.807495      111.821 
1.69462e-05      1.14223      76.3198 
0.000231139     0.175019      30.9638 
0.000194299      10.8298      111.447 
0.000137525      3.13950      116.075 
0.000446307      11.1864      111.886 
0.000591486      14.4740      112.418 
3.11300e-05      3.58728      119.568 
0.000533292      4.62056      125.755 
4.66525e-05      3.28814      121.953 
0.000131318     0.446212      109.654 
0.000361239     0.825126      109.111 
0.000472253      9.86611      111.961 
0.000148837      3.30412      122.394 
0.000332928      5.34319      130.221 
0.000107646      3.84910      104.900 
4.16051e-05     0.685116      118.811 
9.99764e-05      1.30386      66.9616 
0.000136627      2.81419      121.490 
0.000178075      2.14743      105.401 
0.000372684      3.79991      137.241 
0.000139917     0.300155      126.870 
6.58503e-05      4.17250      116.017 
3.99682e-05      1.19430      115.293 
0.000108918     0.189835      18.4349 
3.89979e-05      6.73118      110.613 
6.08170e-05     0.818521      98.4347 
8.34743e-05     0.201350      153.435 
0.000145103      10.8408      111.594 
0.000169230      9.83757      115.079 
5.01946e-05      3.85693      105.331 
0.000250062      3.91864      109.684 
9.38988e-05      3.58439      118.497 
0.000257702      1.20743      116.581 
9.58107e-05      10.7678      108.184 
8.28209e-05      6.83359      106.845 
0.000166698      6.74180      110.852 
9.63553e-05      1.07410      54.0668 
0.000126357      14.2879      107.978 
9.35168e-05      8.60541      122.472 
9.63957e-05      3.82197      112.134 
0.000144540      4.18575      116.386 
0.000145230      2.17638      105.191 
0.000160478      6.98839      113.262 
8.21558e-05      3.32951      122.118 
3.32399e-05      6.81366      107.160 
0.000353233      9.63041      109.282 
0.000307238      7.30354      111.189 
3.34855e-05      8.57651      115.043 
0.000271541      8.25126      117.029 
0.000229333      10.7584      108.032 
6.05216e-05      7.26473      111.054 
0.000112674      2.31283      99.7129 
0.000396643      11.2789      125.255 
6.04437e-05     0.571083      93.0128 
0.000100714      6.47163      107.260 
3.17061e-05      9.60208      109.341 
0.000176951      8.63075      122.365 
0.000328615      13.0676      116.447 
0.000163099     0.218516      15.9454 
0.000216694      5.41235      132.977 
0.000234493      3.97139      137.757 
0.000179882      8.56385      114.861 
7.95560e-05      3.57016      118.073 
0.000199522      6.46279      107.006 
4.01760e-05      14.2501      107.901 
0.000140946      6.80487      106.918 
1.03300e-05      1.15443      65.4173 
0.000268029      9.06135      123.797 
9.58446e-05      4.68010      126.137 
2.01681e-05      9.85033      115.238 
2.03402e-05      12.6597      114.499 
5.78816e-05      2.53183      130.673 
0.000165381      12.1436      101.253 
3.81970e-05     0.474586      145.305 
7.23585e-05      12.1495      101.392 
0.000120858      1.12720      64.7826 
0.000141774     0.835434      111.056 
0.000135757      3.16648      115.836 
0.000145529      12.6722      114.623 
5.65786e-05      12.3229      102.513 
6.99900e-05      11.7994      124.538 
0.000110394      1.71834      114.786 
7.40881e-05      12.8093      118.847 
0.000214522      11.8164      124.658 
0.000100444      4.63816      126.056 
0.000145530      6.75254      111.090 
0.000137469      7.29195      114.036 
3.43506e-05      6.68255      115.529 
0.000152621      12.4321      101.553 
2.78011e-05      3.81064      116.161 
2.77773e-05      11.1752      111.744 
0.000102303      7.00030      113.487 
0.000134637      12.6016      117.969 
7.69883e-05      9.85492      111.799 
8.56354e-05      14.2593      108.015 
9.41186e-05      8.79651      122.607 
2.73208e-05      8.26494      117.214 
1.81163e-05      9.86317      115.395 
9.98189e-05      2.15559      106.170 
0.000124685      12.3913      110.848 
7.47406e-05      5.61028      131.530 
7.41749e-05      2.55149      131.184 
0.000148252      4.91490      128.061 
1.71631e-05      3.21992      116.565 
0.000131486      7.41860      108.140 
8.99323e-05      3.78373      116.362 
2.61615e-05      11.1641      111.600 
0.000115876      6.28050      117.912 
8.19691e-05      12.3294      102.649 
9.08786e-05      10.7492      107.880 
8.91271e-05      1.70598      113.870 
8.91436e-05      12.8238      118.965 
2.46128e-05     0.450232      143.130 
6.37397e-05     0.201350      26.5651 
1.68200e-05      11.1531      111.457 
5.55361e-05      14.2121      108.971 
3.98288e-05      9.91612      115.634 
3.20770e-05      3.34556      122.553 
1.63676e-05      4.69786      126.432 
3.21469e-05      11.1422      111.313 
3.93575e-05      12.6847      114.746 
2.34861e-05     0.930214      91.8491 
2.33870e-05      3.20661      116.085 
3.10928e-05      11.4990      123.402 
1.55439e-05      6.29461      118.154 
1.54372e-05      3.77792      136.932 
3.08660e-05      12.1136      110.589 
1.54028e-05      6.68923      113.805 
1.55117e-05      8.61472      122.196 
3.83362e-05      10.7129      107.269 
3.06957e-05      8.84637      111.695 
2.29765e-05      11.1593      111.114 
1.52954e-05      3.43220      126.474 
2.28430e-05      3.80511      107.431 
1.52265e-05      11.2505      113.078 
1.51440e-05      7.26454      114.132 
7.56530e-06      13.1213      116.624 
7.51315e-06      9.72995      110.392 
0.000632382      16.2708      50.0851 
-0.000477597      7.00015      171.872 
-0.000358774      10.6836      33.7794 
0.000465703      15.5593      146.402 
-0.000427615      7.17285     -17.5289 
0.000231112      15.2027      21.6544 
0.000162487      16.0064     -107.451 
-0.000407538      9.24708      6.89318 
0.000367494      15.1660      118.085 
-0.000333659      14.1450      102.121 
0.000370158      2.68244     -143.646 
4.15844e-05      15.5427      146.494 
0.000192633      17.1166     -47.6989 
-0.000256297      18.3078     -138.920 
0.000118529      4.95264      160.906 
0.000146613      13.7732     -122.548 
0.000251811      7.24021      23.6984 
0.000287716      8.20280     -5.87540 
-0.000115530      8.49327      88.3799 
0.000218473      14.9787      170.199 
-0.000283646      10.5591      63.5078 
0.000113984      15.7025      46.3922 
0.000218894      15.9940      29.0664 
-0.000394874      14.4932     -40.3844 
-0.000319774      15.4826     -130.914 
0.000149551      10.5684      55.4072 
-0.000177226      13.8767     -110.238 
-0.000381666      14.6953      52.3811 
0.000111650      15.2544      49.3868 
0.000138734      14.2719     -151.226 
0.000106027      13.8036     -1.24597 
0.000244541      17.1388     -47.7665 
0.000178475      15.2884      140.814 
0.000208125      8.11973      94.0275 
-0.000106888      8.46417      88.1711 
-0.000139769      10.9563     -127.433 
-0.000342973      12.8167     -91.8789 
0.000204729      4.98101      161.019 
0.000136453      15.9784     -107.483 
0.000102784      11.9654     -125.922 
0.000139307      14.2456     -151.168 
-0.000219039      15.0847     -134.113 
-0.000201835      12.3551     -75.6599 
0.000168728      12.9102     -98.1499 
0.000102323      17.6625     -42.7980 
-0.000135554      7.52529      142.125 
-0.000167540      14.8173      97.2121 
0.000168208      10.5721     -166.044 
0.000101937      10.5456      93.1000 
0.000102824      13.3846     -159.533 
0.000135204      15.2740      49.3013 
-0.000100134      12.2330      51.4703 
-0.000134492      20.4283     -44.8214 
0.000133702      11.8423     -8.89052 
0.000101389      10.5931      55.4994 
6.66746e-05      14.3579     -35.2167 
-0.000254377      15.7190      148.343 
3.40259e-05      7.51804      171.742 
-6.73811e-05      14.7129     -76.5577 
9.82437e-05      14.7021      45.7444 
9.93929e-05      11.0156      162.403 
3.37652e-05      14.4380      77.0313 
-9.75832e-05      11.6561      166.000 
-9.62939e-05      11.8938      67.7683 
0.000476793      15.3057      79.7258 
-6.46188e-05      11.3800     -92.4187 
3.28128e-05      15.6679     -31.7718 
3.28455e-05      15.7233      46.3130 
-6.47746e-05      14.4704     -40.4614 
6.39761e-05      13.0319      22.6107 
6.43756e-05      12.5804      44.3233 
-6.40583e-05      11.0257      119.145 
-3.26536e-05      14.6122      17.3193 
0.000118820      6.90795     -77.7135 
-6.38585e-05      8.41183     -166.804 
-6.41937e-05      14.4185     -148.096 
-6.37896e-05      14.7200     -76.4441 
-3.23897e-05      15.0639     -134.031 
-3.22912e-05      14.1667      19.5483 
-6.38329e-05      6.70891     -76.0259 
6.34557e-05      9.89575     -140.906 
3.22479e-05      6.71148     -175.383 
-6.36170e-05      7.32845      5.87113 
6.32308e-05      16.4752     -61.1469 
3.22018e-05      15.2411     -16.9370 
-6.32438e-05      13.4124     -65.5571 
3.21164e-05      15.3539      140.869 
-3.19514e-05      17.0741      54.4386 
6.31528e-05      14.1705     -120.256 
3.19221e-05      13.3565     -159.488 
6.29854e-05      15.4513      33.9988 
3.16621e-05      6.66177      113.909 
-3.15875e-05      13.5442      114.748 
5.39452e-05      20.3907      43.7475 
3.15077e-05      16.4523     -53.5278 
-3.14247e-05      12.9738      116.802 
3.13580e-05      15.8187      29.9205 
0.000134089      11.0066      162.552 
3.12792e-05      18.9606      53.4938 
-3.11759e-05      17.5033      49.1008 
-3.10318e-05      9.54892     -2.52221 
3.10522e-05      8.21357      55.2631 
-0.000320252      3.13204     -159.833 
-8.19164e-05      3.11445     -159.124 
-0.000869873      15.9110      147.239 
-0.000271687      3.84667     -128.028 
-0.000294144      11.7034      164.538 
0.000104780      13.1279     -28.3815 
-0.000195186      12.3480      166.369 
7.02013e-05      13.0608     -28.3908 
-0.000158529      11.0492      61.2784 
0.000104170      7.43945      17.1172 
0.000242468      8.98638     -86.5532 
-7.04122e-05      3.67732      174.379 
-0.000134119      6.30683     -22.6597 
0.000407728      16.4765     -53.5899 
6.82926e-05      7.26750     -87.3961 
-0.000157624      15.1886     -71.8148 
0.000218367      18.8073     -42.9305 
-6.66229e-05      2.95222     -154.738 
-6.63148e-05      10.0218     -23.6476 
-0.000358086      17.6353      141.494 
-0.000123282      9.39033     -101.239 
-0.000120797      5.63804     -65.4816 
0.000208649      12.6458     -51.7421 
-6.49604e-05      16.5564      28.9325 
9.66283e-05      14.5889     -2.00439 
0.000177191      14.0097      25.3586 
-0.000117232      5.85494      98.5424 
6.32796e-05      7.76133      19.4142 
-0.000277173      16.9866     -25.7512 
-0.000179489      15.9187      22.8447 
0.000199278      6.52805     -175.781 
0.000168753      9.20828      80.8140 
-0.000247075      15.0723      156.292 
0.000169365      11.6518     -133.228 
-0.000174085      10.3503     -158.045 
0.000204154      14.5812      71.8998 
-0.000135629      14.5803      96.3796 
-0.000186979      13.7942      115.507 
0.000135220      12.5918     -60.1348 
8.70587e-05      7.91624      21.8014 
0.000113573      18.7030     -142.561 
0.000115038      14.5589     -177.991 
6.08145e-05      13.9333     -97.9215 
0.000190103      7.29890     -87.1714 
0.000159861      10.5876     -71.1528 
-5.88081e-05      15.9362      147.298 
-8.69695e-05      2.96515     -154.213 
0.000358416      13.3785     -113.805 
-0.000133910      15.8182      37.9131 
-0.000123954      9.38061      29.9285 
-0.000196429      12.7624      36.4933 
-0.000175807      15.7386     -149.281 
8.27297e-05      13.3292     -28.3541 
-0.000150447      6.27914     -22.7652 
-5.74529e-05      14.0446     -67.6540 
-0.000231793      9.99427     -23.7166 
-8.42660e-05      18.1997      37.7005 
-5.61921e-05      5.96637      166.034 
5.44231e-05      2.41831     -52.5647 
0.000184584      10.1666     -15.2251 
2.95554e-05      12.0672     -161.296 
-0.000128909      9.84476      79.8190 
0.000210317      13.8149      138.521 
0.000109858      15.0646     -178.630 
2.94348e-05      18.9784      53.4210 
-0.000124730      15.0449      156.246 
0.000360085      14.5589     -2.00852 
-0.000103204      15.4531     -50.5941 
-5.65371e-05      15.9525      147.207 
-9.69040e-05      12.3118      166.472 
0.000128030      15.8323     -75.9644 
0.000153870      13.9120     -98.1834 
0.000274091      8.83702      168.842 
-5.48216e-05      14.8359     -76.0748 
8.27372e-05      18.1522     -52.1836 
-5.49147e-05      9.90371     -117.808 
0.000120739      13.7090      57.8749 
9.93009e-05      13.6653      21.7798 
-0.000126087      16.5826      28.8824 
-0.000338824      14.8745     -158.092 
-0.000205504      10.3904     -139.922 
-5.40105e-05      10.3560      36.6391 
0.000129556      14.0123     -144.235 
-2.80991e-05      11.0755      61.3530 
-8.03512e-05      15.8634     -157.071 
0.000104535      13.1314     -30.0198 
-5.42573e-05      12.9143      54.1682 
0.000120071      18.9841      53.5464 
-7.77089e-05      15.2561      25.7572 
-2.71788e-05      12.8467     -91.8745 
0.000144360      16.4897     -61.0556 
5.04438e-05      17.5353     -132.782 
0.000101631      12.8144     -51.6530 
-2.69793e-05      10.2836     -18.5420 
2.68703e-05      9.12771      74.3665 
-0.000237398      9.59650     -79.0055 
-0.000103608      19.6225      44.6917 
0.000396623      13.1589     -46.8463 
0.000346141      18.7853     -42.9928 
5.10930e-05      17.4619     -54.0155 
8.92392e-05      10.2958      160.243 
-0.000183576      12.8478     -92.0083 
9.41863e-05      11.3649      73.9081 
2.61318e-05      13.5357     -38.5199 
7.42653e-05      14.7885      39.5688 
9.22595e-05      14.2335      38.7551 
-7.17574e-05      14.0332     -67.7673 
-0.000566962      20.5556     -47.6039 
-7.08600e-05      14.5454     -55.5901 
-0.000212949      19.6228      44.5677 
-7.15580e-05      3.58641     -70.9623 
-7.29861e-05      17.9729     -50.0116 
-0.000678770      15.9580      22.9021 
-5.84421e-05      15.5756      31.8524 
0.000267716      16.4226      148.749 
-9.19708e-05      10.2932     -18.7004 
7.03658e-05      16.4542      28.0610 
2.53963e-05      13.3252      133.725 
-4.77927e-05      12.9076      53.9822 
0.000525781      18.1470     -52.0506 
0.000156902      14.6191      71.8245 
-0.000439922      21.4477      134.378 
-4.47760e-05      15.6110     -169.705 
6.97463e-05      12.4142      9.60011 
-0.000350210      15.8358     -157.029 
0.000117098      10.3319     -14.1160 
2.49491e-05      7.62620      37.0052 
-0.000106581      11.7148      165.465 
-0.000169402      14.5835      17.3544 
-6.94905e-05      10.2881     -20.1281 
-2.48157e-05      18.1760      37.7584 
-0.000117801      10.7739      120.634 
4.73377e-05      15.4005      141.010 
0.000154269      15.1971     -43.0812 
-6.74898e-05      12.5472     -29.5086 
4.81704e-05      18.6397      145.490 
-6.58431e-05      5.99550      166.103 
0.000139665      12.7709     -134.619 
0.000130825      13.0157      22.7835 
-4.68412e-05      12.8040     -150.370 
-0.000206863      15.4375     -130.033 
-6.84205e-05      9.32776     -55.7500 
-2.42190e-05      17.5528      35.0482 
-2.40700e-05      5.61960      86.6317 
-0.000406532      18.0556      31.8941 
4.55710e-05      14.5290     -177.987 
-4.49537e-05      2.99221     -154.463 
-2.39241e-05      10.6661     -63.7937 
-2.39406e-05      17.2551      48.3830 
-4.41754e-05      12.8900      54.0901 
2.38999e-05      12.8241      15.4683 
4.42352e-05      13.2267      3.63980 
7.97252e-05      6.57849      43.5210 
0.000160847      8.45243      161.372 
0.000283590      14.4969     -71.0398 
-6.72287e-05      13.4546     -80.2451 
8.53923e-05      18.7915      137.523 
0.000196401      13.1724     -30.0675 
-0.000262962      2.07610      37.3628 
2.36432e-05      15.8189     -75.2788 
2.35902e-05      15.0639     -178.744 
-2.35933e-05      17.5717      48.2527 
-9.03063e-05      11.8745      14.0362 
0.000142829      16.2132      50.3292 
-6.37311e-05      10.1399      134.760 
-2.33993e-05      13.7426      96.6442 
-0.000103133      14.5508     -37.4609 
-2.33255e-05      9.80171      124.274 
0.000623706      18.6227      145.567 
-0.000694880      17.3091     -152.545 
-6.60214e-05      5.35399      85.8206 
-0.000127292      17.2311     -129.843 
-0.000241128      18.3604      39.8302 
0.000168946      16.5185     -53.5679 
-6.61954e-05      15.1137      137.090 
4.39695e-05      17.4377     -53.9576 
-4.23709e-05      15.5399      53.2391 
-0.000186612      7.15262     -46.8662 
-9.81666e-05      19.6902     -139.759 
0.000207377      20.1144      43.7908 
6.19575e-05      18.9025      48.9258 
2.27856e-05      17.5774     -145.008 
-2.27154e-05      7.35157      141.960 
-0.000246996      17.2775      48.4491 
0.000101429      18.5291     -142.500 
-0.000171107      10.7062     -63.7205 
-0.000299823      19.3460     -50.9792 
0.000101404      14.2438     -150.195 
8.37141e-05      15.8113     -75.3840 
6.47166e-05      12.8611      15.5615 
9.66817e-05      7.10657     -130.551 
-2.23969e-05      15.0385     -101.041 
0.000177293      13.9267     -14.2167 
-2.23443e-05      8.30909     -166.212 
4.34063e-05      18.9223      48.8573 
-9.19641e-05      5.64956      86.6496 
