! Center RA: 12 21 31.69052,  Dec: +28 13 58.50022 (2000.0)
! Established model.
! Flux (Jy) Radius (mas)  Theta (deg)  Major FWHM (mas)  Axial ratio   Phi (deg) T \
! Freq (Hz)     SpecIndex
 0.0639382      0.00000      0.00000 
 0.0162863    0.0300155     -90.0000 
0.00762856    0.0424483     -45.0000 
0.00182837    0.0671167      116.565 
0.00749196    0.0949173      108.435 
0.00343791    0.0671167     -63.4349 
0.000753267     0.123757      104.036 
0.00568889     0.120062      90.0000 
0.00224272    0.0848966     -45.0000 
0.000528636     0.150077      90.0000 
0.00407206     0.212241      98.1301 
0.00149234    0.0848966      135.000 
0.000451688     0.180093      90.0000 
0.000151786    0.0424483      135.000 
0.000445544    0.0300155      180.000 
0.00284093     0.241993      97.1250 
0.00170358     0.247514      104.036 
0.00324068     0.108222     -33.6901 
0.00147370    0.0949173      161.565 
0.00339954     0.276729      102.529 
0.00238247     0.123757      75.9638 
0.00201395     0.123757      165.964 
0.000307548     0.134233     -26.5651 
0.00166649     0.150077     -36.8699 
0.000211806     0.161638     -21.8014 
0.000104920     0.284752      108.435 
0.000120093     0.313371      106.699 
0.000203153     0.153050      168.690 
0.00119315    0.0949173      71.5651 
0.000269362     0.408255      107.103 
0.00115792     0.418067      111.038 
0.000666064     0.134233      63.4349 
0.000190406    0.0671167     -153.435 
0.000736752     0.108222      56.3099 
0.000910614    0.0600310     -90.0000 
0.00111929     0.446212      109.654 
0.000111466     0.210108      90.0000 
0.000429860     0.108222     -56.3099 
0.000198097    0.0900464      180.000 
5.82671e-05     0.189835      71.5651 
0.000550273     0.553458      102.529 
0.000462591     0.127345      45.0000 
0.000296797     0.127345     -45.0000 
0.000208290     0.201350      63.4349 
0.000445474     0.457182      113.199 
0.000323667     0.120062      180.000 
0.000682609      3.55614      115.484 
0.000132787     0.582795      101.889 
0.000207996     0.577359      98.9726 
0.000504393      3.53169      99.7865 
0.000142838     0.677180      102.804 
0.000151467     0.182577     -9.46232 
0.000118281     0.258203      54.4623 
0.000408439      8.57398      111.988 
0.000773615      3.83338      112.549 
5.66988e-05     0.189835     -18.4349 
0.000120060     0.256452      110.556 
7.47564e-05     0.713460      104.621 
0.000914423     0.484915      111.801 
0.000143301     0.792431      114.624 
0.000605787      2.00852      76.1662 
0.000532567      10.2934      113.351 
0.000409026     0.276729      49.3987 
0.000966976      1.17139      92.9376 
5.17587e-05      1.23135      87.2056 
0.000306956      2.36335      118.836 
0.000369447      4.79682      105.599 
0.000259971     0.228591      113.199 
0.000337867      13.5055      120.723 
0.000204264      1.79446      110.564 
0.000191617     0.212241     -8.13010 
0.000159423      2.71103      114.863 
0.000456494      4.42377      112.742 
7.97261e-05      1.76479      121.791 
0.000176753     0.805400      116.565 
0.000169054     0.297138      45.0000 
0.000412316      4.84164      132.488 
0.000168279     0.900215      88.0893 
0.000146562     0.706480      102.265 
0.000664243      13.4173      115.992 
0.000414981      11.1009      127.643 
0.000333319      4.82142      132.225 
2.96418e-05     0.134233      153.435 
0.000199426      1.78078      122.612 
0.000631130      5.74903      111.750 
0.000482996      2.27831      80.9038 
0.000237860     0.361434      41.6335 
0.000157896      6.46838      115.257 
0.000627235      11.4313      117.169 
0.000338797      3.18690      112.701 
0.000651751      15.2431      123.440 
9.99923e-05      1.26561      84.5564 
0.000640395      9.31804      127.017 
0.000106565      1.17331      94.4015 
6.26982e-05     0.671167      100.305 
0.000512926      10.3322      113.439 
0.000119859      8.60182      111.913 
6.27600e-05      8.85909      118.299 
3.90663e-05      4.78884      105.254 
0.000348851      8.84490      118.128 
0.000199714      13.5467      120.767 
0.000207430     0.553458      139.399 
0.000256548      8.88553      118.208 
4.87777e-05    0.0949173     -71.5651 
0.000158786      8.80638      105.408 
0.000227326      4.81004      104.815 
1.25285e-05     0.150077      143.130 
4.76871e-05     0.495028      75.9638 
8.32825e-05      1.82619      137.665 
0.000356189      10.8602      127.030 
0.000170774      10.9491      128.659 
6.80321e-05      10.7207      115.706 
0.000176630      1.75557      123.140 
2.30566e-05     0.901714      86.1828 
1.15735e-05     0.474586      71.5651 
0.000123374     0.161638      158.199 
0.000140028      9.00829      103.483 
0.000372018      1.84849      138.291 
0.000173895      7.30102      117.935 
0.000131174      1.76639      110.906 
0.000172700      2.75092      115.167 
5.01668e-05      6.49553      115.144 
0.000341124      10.6453      109.254 
0.000330050      7.84203      106.213 
0.000126564    0.0848966     -135.000 
7.33574e-05     0.819263      118.443 
0.000162394     0.524198      76.7595 
0.000255227      9.22139      108.789 
4.10507e-05     0.874348      84.0888 
0.000139963      3.40914      114.986 
0.000178963      7.60742      115.961 
0.000140383      10.7608      115.781 
0.000209782      2.37798      119.469 
0.000190055      3.12700      118.041 
0.000149570      1.44281      93.5782 
0.000209766      8.03366      104.713 
0.000236558      4.80245      104.468 
9.45099e-05     0.700718      99.8658 
8.11831e-05     0.845111      117.498 
4.36835e-05     0.877947      82.1400 
0.000154854      7.41947      101.901 
0.000194961      2.24868      80.7829 
0.000167095      13.4739      122.452 
0.000153149      3.75327      124.583 
4.28377e-05      4.39520      100.615 
6.29560e-05      11.6398      114.518 
0.000165411      11.9907      123.056 
8.73236e-05      2.77311      95.5903 
0.000147821      8.87139      118.037 
2.44292e-05     0.108222     -146.310 
4.14208e-05      13.2858      121.896 
0.000123697      8.12816      112.116 
9.92741e-05      9.39254      107.856 
4.67447e-05      8.59067      111.727 
8.41398e-05      9.03748      103.439 
0.000113746     0.859382      119.273 
8.27568e-06      3.17543      112.201 
0.000181395      1.87100      138.903 
9.07133e-05      11.0693      111.628 
8.31696e-05      1.44124      92.3872 
4.60889e-05      13.4902      120.613 
5.26263e-05      2.01590      75.3379 
0.000323141      10.6071      109.154 
7.56302e-05      4.36023      100.300 
3.72949e-05      3.52907      115.693 
6.77498e-05      7.62061      116.164 
7.51122e-05      11.4176      117.035 
8.13777e-05      10.7739      115.924 
7.41698e-05      9.24981      108.729 
4.48954e-05      8.49755      110.674 
2.95474e-05     0.339586      45.0000 
0.000102445      9.29409      127.128 
5.18720e-05      13.2700      121.786 
6.60147e-05      11.1430      127.671 
5.15210e-05     0.882552      80.2093 
7.30691e-05      12.2319      122.987 
7.64518e-06      3.40535      104.275 
1.49680e-05      7.64993      118.076 
1.48442e-05      7.31513      118.142 
4.35852e-05      3.30688      86.3572 
1.44587e-05      8.76949      105.271 
2.90048e-05      3.44191      104.636 
2.86504e-05      7.71702      118.063 
3.56228e-05      3.91566      120.890 
2.81453e-05      4.86381      132.249 
1.40972e-05      2.33711      119.190 
2.79779e-05      13.3215      120.144 
7.10162e-06      13.4325      122.413 
2.10246e-05      5.73798      111.472 
1.40802e-05      11.4580      117.100 
1.41054e-05      3.77802      124.324 
1.38431e-05      1.32032      68.6702 
0.000757252      9.58850      176.411 
0.000745213      11.4717     -66.2502 
0.000347994      18.4352      54.1367 
0.000830053      11.1918     -137.715 
0.000350977      15.5296     -129.748 
-0.000471911      4.42851      127.565 
0.000471703      6.36227      157.549 
0.000381020      14.2409      75.2308 
-0.000222963      3.96957      47.1449 
-0.000346629      9.27693      36.0533 
0.000262646      11.8920     -47.6597 
0.000371559      18.4595      54.1913 
-0.000294770      14.3959      116.353 
-0.000456607      13.3203     -78.4375 
0.000253413      11.0096     -13.3912 
-0.000308856      4.52487      151.059 
-0.000288916      12.4951     -7.44980 
-0.000252481      16.3438      57.2147 
0.000207884      9.43882      57.7237 
0.000285769      7.03838      52.4459 
-0.000286022      4.77374     -135.764 
0.000328064      16.1115     -158.595 
-0.000246676      15.6451      115.680 
0.000283545      13.4324     -98.3483 
-0.000205244      10.2644      178.324 
0.000205002      19.9605     -137.558 
0.000164155      14.0667      39.4608 
-0.000282186      15.5022     -49.0019 
-0.000122977      8.21567      132.779 
-0.000162392      4.20633      20.8922 
0.000162970      12.0363     -69.5777 
0.000238218      15.9629     -145.025 
0.000159434      16.0898     -71.9690 
-0.000236297      16.1222      160.319 
0.000157247      9.47943     -55.0544 
-8.11920e-05      14.8815     -54.9332 
-0.000118743      5.17286      127.935 
-0.000195129      11.3280     -19.0087 
-0.000157275      4.58856      96.3847 
-0.000154994      9.97538     -38.2829 
-4.12093e-05      9.76260     -126.376 
0.000233808      12.2084      156.079 
0.000156653      11.7478      83.4016 
0.000231888      19.2671      46.3871 
0.000154509      18.4798     -40.1279 
0.000153500      15.8343     -75.0688 
-7.95179e-05      16.6760     -58.3111 
0.000154505      7.24205      6.18022 
-0.000116073      9.75093     0.881879 
-0.000153580      9.78043     -126.517 
0.000115613      16.4276      59.1260 
-7.74348e-05      15.8017      16.8869 
0.000114660      8.06365      156.773 
0.000527565      14.5350      19.0336 
0.000153027      14.3340      132.369 
0.000115116      5.41611      175.550 
0.000114883      12.4252     -128.532 
0.000152460      1.50482      94.5762 
0.000190315      17.2801      138.590 
0.000115208      2.86491      46.2735 
0.000114054      5.93140     -128.838 
0.000113849      18.9065      37.1965 
-0.000105346      15.9952     -18.3678 
-3.91719e-05      10.1436      88.4739 
-3.87983e-05      13.9714     -64.9751 
-7.57359e-05      10.7181     -175.185 
0.000192104      18.0108      44.3923 
-7.46885e-05      16.8552      144.784 
-7.53676e-05      10.5640     -58.1163 
-0.000280703      19.3354      138.271 
-0.000117334      10.6793     -23.6849 
-3.80443e-05      15.2331      44.0440 
0.000141973      16.8255     -121.735 
7.45114e-05      16.3346     -45.4467 
-7.45608e-05      13.9442     -64.9229 
-7.43050e-05      15.9763     -18.5039 
4.88575e-05      19.5515     -47.1759 
-7.35015e-05      6.30909     -108.006 
-3.72917e-05      14.1387      149.245 
-3.71806e-05      16.6918     -58.2234 
-3.71451e-05      15.5794     -148.545 
3.71107e-05      18.9485      37.2139 
-3.70517e-05      14.5668      105.896 
3.68761e-05      5.65976      172.389 
-3.67924e-05      11.4609     -48.9263 
3.67686e-05      14.5011     -158.266 
-3.67573e-05      9.25268      36.1627 
3.67139e-05      15.7732      28.5158 
-3.65699e-05      17.5226     -44.5853 
-9.22795e-05      12.5194      66.2589 
-3.62076e-05      14.5586      105.783 
-3.61272e-05      8.94024      65.4140 
3.61319e-05      15.7490     -167.233 
-3.60499e-05      15.6721      115.633 
0.000532835      14.3101     -93.7251 
-0.000309298      11.6173     -67.2096 
0.000477319      18.9964      37.1044 
-0.000180895      11.5839      1.48478 
0.000277175      17.4138      142.420 
-0.000172991      13.6631      155.066 
0.000140265      8.18800     -107.703 
0.000171868     0.324667     -123.690 
-0.000162142      19.0285      135.064 
0.000260473      14.5066      19.0723 
-0.000189493      5.29479     -11.4357 
-0.000201161      12.3300      131.250 
-0.000254328      6.23367     -21.7476 
-0.000167017      15.7761      159.636 
0.000158489      14.9338      176.777 
-0.000261231      11.5803      179.554 
0.000412045      7.31512      67.3254 
0.000600507      13.0925      144.890 
-6.33786e-05      9.63195     -136.010 
0.000236736      14.8879     -178.151 
-0.000406254      11.6125     -178.815 
6.58557e-05      11.6225     -52.6581 
0.000377707      15.3297      3.58946 
8.82191e-05      8.19717     -107.903 
6.48349e-05      9.88866     -142.644 
-0.000376174      16.3554     -116.001 
-9.32450e-05      13.1349     -5.24125 
-0.000372357      16.4667      146.368 
0.000348119      9.97531     -13.7425 
0.000118327      9.94007     -2.59608 
-6.17664e-05      7.00337      83.6083 
-6.27855e-05      15.1378      102.825 
-6.13173e-05      11.6566     -67.1307 
-3.18314e-05      9.75139     -125.987 
-0.000310561      14.5956     -15.8641 
6.21882e-05      10.4798     -152.554 
-5.79418e-05      16.4523      36.4722 
8.55027e-05      14.4096     -26.1928 
-0.000210067      11.5241      110.415 
3.13078e-05      7.94084      4.11841 
0.000174296      13.4043     -83.5748 
-0.000266606      12.2792     -152.184 
-0.000117492      18.3765     -46.4560 
0.000202551      6.21758     -38.1382 
-0.000189164      4.02373     -20.0571 
-0.000112827      11.4616     -61.8931 
-0.000111110      9.97371      24.7140 
8.55262e-05      11.6044     -52.7759 
0.000112128      15.6329     -169.272 
0.000827633      19.1879      52.8787 
-0.000101521      11.6540      92.8049 
0.000137363      14.3211     -13.0765 
0.000154294      9.43764     -55.0994 
0.000126563      18.7644      141.426 
-8.31816e-05      18.2034      130.990 
-0.000392577      14.6842     -30.4425 
0.000173506      16.6608      141.066 
0.000392082      12.8968     -115.193 
-0.000108076      14.1945     -24.0732 
-0.000299521      16.8692      25.1527 
0.000159943      7.91090      4.13402 
-7.95341e-05      16.3660      38.1515 
5.70190e-05      12.1904     -122.946 
2.93331e-05      9.89439     -142.888 
-8.08052e-05      11.3905      131.584 
0.000162592      15.0139     -163.158 
0.000204197      10.5065     -152.630 
0.000202983      9.65166     -12.5689 
0.000100023      14.9038      176.770 
0.000101494      7.51342      43.0574 
-0.000200076      15.0953      102.628 
-2.87718e-05      13.6359      155.013 
-0.000105399      10.7223     -36.5828 
-0.000168286      17.1766     -34.8280 
-7.80192e-05      15.7480      159.598 
8.08355e-05      8.38954      166.558 
-7.55514e-05      15.5538     -148.488 
-2.82743e-05      16.3896      38.0867 
0.000106362      9.45209      88.9083 
0.000141247      14.2801     -93.7330 
0.000124539      15.1626     -57.4425 
-5.39377e-05      15.5414     -171.229 
2.79371e-05      12.2755      156.064 
-8.80983e-05      12.3075      131.342 
-0.000217199      10.8696     -38.3874 
0.000145542      6.12655      171.555 
0.000122839      15.4570      7.36066 
7.23909e-05      19.0506      141.650 
-2.75259e-05      13.1050     -5.25324 
-6.61253e-05      13.6221      154.847 
-5.21023e-05      17.6071     -128.704 
7.76417e-05      16.0713     -72.1725 
7.79768e-05      15.1788     -57.3470 
-0.000167375      17.4706      150.134 
2.67564e-05      20.8850      46.8636 
-9.67333e-05      18.0741      57.1287 
0.000117618      12.2480      156.007 
-7.58953e-05      18.3558     -46.5239 
-7.48920e-05      5.24667      117.588 
0.000179444      8.25418      88.1245 
7.16869e-05      6.15624      171.596 
7.42748e-05      6.32374      159.161 
-4.99883e-05      18.4909      41.4497 
-0.000107749      15.3476      21.8014 
2.59913e-05      8.39657      166.359 
-0.000177667      17.7765     -134.726 
4.88373e-05      11.8385     -14.5295 
0.000238846      10.2669     -79.0498 
2.56785e-05      15.9744      28.4912 
-2.56341e-05      9.96119      24.5572 
0.000409800      15.1012      65.2165 
2.56241e-05      17.2009     -138.890 
-8.38072e-05      12.9868      130.127 
4.96832e-05      14.9022      176.885 
-9.06804e-05      11.5827      134.370 
-0.000191348      16.4442     -136.257 
-2.51475e-05      17.6094      34.8000 
-0.000127054      15.4727     -130.360 
6.79460e-05      14.2503     -19.0456 
-2.50068e-05      9.07203     -172.782 
-0.000280476      16.5871      115.267 
-2.48380e-05      18.0525     -38.1837 
6.78898e-05      14.5716      141.855 
8.35897e-05      14.7556      155.623 
4.73335e-05      17.2066      33.5508 
-0.000211548      3.39686      162.530 
4.75626e-05      9.91009     -2.60394 
-4.75308e-05      13.6903      155.119 
-0.000275248      19.3154      138.337 
-0.000158991      15.5460     -171.120 
8.77467e-05      15.4101     -56.8361 
0.000180266      20.4982     -43.5761 
0.000421133      12.9140      168.612 
-4.59372e-05      20.1455      41.6192 
0.000164070      8.36740      166.310 
-2.41654e-05      11.4881     -61.9636 
0.000223186      10.9497      19.5252 
-2.41315e-05      13.1475      55.6941 
0.000287086      19.3554      139.968 
0.000192469      16.0336     -72.2417 
-0.000152236      15.2883      15.9450 
-9.05220e-05      17.7324      137.674 
-9.06865e-05      16.3842     -62.4022 
-2.37308e-05      16.4495     -115.957 
4.04327e-05      17.2039     -139.031 
0.000249878      13.9611      6.91188 
-0.000187184      13.7925     -26.6208 
4.56905e-05      14.5024      36.4193 
0.000205724      15.3521     -56.9624 
4.53899e-05      5.19185     -178.344 
-0.000254453      15.7983     -24.8122 
-4.61481e-05      18.1960     -49.6130 
-2.34910e-05      17.6259     -128.780 
0.000102271      14.9852     -163.125 
-0.000327137      17.2184     -34.8529 
-0.000218107      12.5469      66.3141 
0.000142925      11.6283     -52.8654 
-0.000303163      16.3285     -116.047 
-0.000189029      20.1643      133.071 
0.000163006      17.6146      56.0398 
-2.32160e-05      16.4765      36.4101 
4.41966e-05      9.48083      89.0930 
-2.29908e-05      9.38801      175.599 
-8.27895e-05      11.4475     -62.0256 
-8.28884e-05      14.1295     -17.1647 
-6.62853e-05      12.1361     -144.660 
-0.000105973      13.1723      55.7677 
0.000323724      19.2296      140.698 
6.34584e-05      14.4846      36.3237 
2.27788e-05      9.16447     -95.6340 
-0.000237054      11.8802      179.855 
-0.000294859      9.84353      1.57258 
0.000110358      17.4550     -138.833 
-0.000135944      15.4530      159.666 
0.000170434      11.1493     -148.533 
2.25963e-05      14.2270     -24.9444 
6.09882e-05      13.8086      52.0608 
0.000322146      18.3826      125.636 
2.23459e-05      9.62237     -12.6078 
8.65888e-05      16.4364      25.8631 
8.12628e-05      2.36271     -20.0406 
-0.000116625      17.0403      28.9556 
0.000341715      15.8892     -29.2767 
-6.19050e-05      12.6357     -80.1556 
4.27726e-05      17.2265     -139.096 
-2.19619e-05      15.0616     -171.869 
-4.06792e-05      15.7816     -13.7449 
-0.000152690      18.1537     -49.6237 
-4.26661e-05      18.5135      41.3882 
-4.25356e-05      16.4765     -115.912 
3.98683e-05      19.9827     -137.616 
0.000153499      9.68752     -12.7035 
-2.17450e-05      13.4824      160.637 
0.000113310      6.35180      159.257 
-2.16332e-05      15.1564      35.1693 
-5.46471e-05      13.5949      154.793 
8.28086e-05      19.4424      130.744 
2.15436e-05      10.2612     -79.2143 
-2.14767e-05      7.37077      75.6228 
-4.22011e-05      2.10679     -107.409 
-5.64006e-05      4.03412     -20.4575 
9.82862e-05      13.5088      101.659 
-6.20867e-05      9.41793      175.613 
-6.07398e-05      16.7444     -55.1441 
-0.000345099      10.5666      155.690 
-4.12889e-05      15.1861     -20.2240 
-4.15958e-05      14.7668     -52.5944 
-0.000243452      15.1311      102.714 
-4.10232e-05      7.32011     -133.841 
-0.000151988      16.4247     -62.3579 
4.08024e-05      7.83785      47.9492 
-0.000344616      17.4446      150.085 
4.03561e-05      17.7301     -59.2691 
3.60967e-05      13.8317      52.1354 
4.07647e-05      18.0206      52.1003 
2.07438e-05      9.51878     -33.6876 
-0.000130752      15.0319     -171.853 
-3.92196e-05      9.68989     -78.9320 
