! Center RA: 12 21 31.69052,  Dec: +28 13 58.50022 (2000.0)
! Established model.
! Flux (Jy) Radius (mas)  Theta (deg)  Major FWHM (mas)  Axial ratio   Phi (deg) T \
! Freq (Hz)     SpecIndex
  0.114917      0.00000      0.00000 
 0.0430115    0.0300155      180.000 
0.00918868    0.0424483      135.000 
0.00702665    0.0671167      116.565 
 0.0240259    0.0300155     -90.0000 
 0.0138466    0.0900464      90.0000 
 0.0170458     0.120062      90.0000 
0.00218670     0.212241      81.8699 
 0.0114565     0.240124      90.0000 
0.00422966    0.0600310     -90.0000 
0.00745204    0.0949173      108.435 
 0.0199798    0.0671167     -63.4349 
0.000679552    0.0848966      135.000 
0.00810217     0.241993      97.1250 
0.000503169     0.276729      102.529 
0.00293583     0.379669      108.435 
0.00398255     0.390201      112.620 
0.00553058     0.150077      90.0000 
0.000170482     0.351322      109.983 
0.000966060     0.284752      108.435 
0.00247054     0.123757      104.036 
0.000139786     0.295618      113.962 
0.00224894     0.256452      110.556 
0.00492495     0.408255      107.103 
0.00189908     0.268467      116.565 
0.00146194     0.607026      98.5308 
7.74412e-05     0.228591      156.801 
0.000477489     0.256452      159.444 
0.00389194      1.10049      107.459 
0.000332283     0.283165      122.005 
0.000531934     0.429756      102.095 
0.000464565     0.636724      98.1301 
0.000317147     0.247514      165.964 
6.81885e-05     0.210108      90.0000 
0.000890626     0.633177      95.4403 
0.000182858     0.459149      101.310 
0.000217221     0.589711      104.744 
0.000176864     0.598054      107.526 
0.000378856     0.560735      105.524 
0.00320599     0.569504      108.435 
0.00133916     0.268467      153.435 
0.000461239     0.666452      97.7652 
0.000212102     0.700718      99.8658 
0.000201728     0.735839      101.768 
6.66882e-05     0.886169      113.982 
0.00100695     0.925918      114.924 
0.000299651     0.730308      99.4623 
0.000293020     0.189835      71.5651 
0.00194256      1.28826      117.774 
0.000599323     0.175019      59.0362 
5.47264e-05     0.770966      103.509 
0.000200597     0.309028      119.055 
0.000103295     0.663064      95.1944 
0.000364241     0.764512      101.321 
0.000142452    0.0671167      153.435 
0.000530927     0.295618      156.038 
0.00126494     0.150077      53.1301 
0.000288330     0.913675      113.217 
0.000171704     0.350038      120.964 
0.000411163     0.309028      150.945 
0.00104745     0.108222     -56.3099 
0.00170661      2.88434      116.565 
0.000391019     0.108222      146.310 
3.96614e-05     0.376093      118.610 
0.000278928     0.631039      92.7263 
0.000277041     0.391354      122.471 
7.30978e-05     0.800182      103.007 
0.000364846     0.953222      114.164 
0.000171482     0.579695      111.251 
0.000264244     0.661022      92.6026 
0.000155602     0.793965      100.896 
9.33019e-05     0.618785      112.834 
3.23424e-05     0.216445      56.3099 
0.000422478      1.32886      118.316 
0.00123276      2.30842      117.890 
3.04639e-05     0.234428      50.1944 
0.000572861     0.965897      115.789 
0.000161907     0.408255      126.027 
0.000138387     0.258203      54.4623 
5.58802e-05     0.631039      115.346 
0.000312783     0.752186      118.610 
0.000121926      2.32261      118.544 
0.000534232     0.633177      148.570 
0.000900468      4.21200      108.693 
2.57740e-05     0.424483      98.1301 
0.000166770     0.108222      56.3099 
0.000229912     0.630325      90.0000 
0.000311505      9.49292      111.702 
0.000821555      1.30251      118.942 
0.000136649     0.276729      49.3987 
4.81128e-05     0.421287      94.0856 
0.000831426      9.11227      115.130 
0.000233206      3.08702      124.312 
0.000474294    0.0949173     -71.5651 
0.000402773     0.342229     -15.2551 
0.000322741      9.71235      110.619 
0.000395326      1.49316      112.454 
0.000103566     0.420217      90.0000 
0.000440810      9.53192      111.803 
6.47641e-05      2.32590      120.197 
0.000565502      3.59580      116.779 
0.000363728      3.07943      125.088 
0.000195014      2.33111      121.843 
7.24951e-05     0.426600      129.289 
0.000258229     0.660341      90.0000 
0.000636199      10.5120      111.953 
0.000231930      1.54848      121.526 
0.000190271      3.83338      112.549 
0.000160272     0.284752      161.565 
0.000143630      4.02486      102.479 
0.000162983      9.84409      111.641 
0.000415163      2.84410      116.295 
7.19478e-05      9.96851      116.642 
0.000303249      10.8879      113.033 
4.99027e-05     0.421287      85.9144 
0.000272771     0.979329      117.370 
3.54490e-05      3.95660      107.198 
5.06748e-05     0.300155      36.8699 
0.000449432      2.34709      122.466 
0.000349334      10.1130      110.856 
0.000256733      9.98201      116.796 
0.000181227      3.93698      107.744 
0.000210049      9.67370      110.515 
0.000294382      4.01848      102.061 
0.000178560      9.11967      111.418 
5.47147e-05      11.0634      114.342 
0.000170817      11.0908      114.278 
0.000155773     0.658975      149.931 
0.000168832      9.35566      109.481 
2.91873e-05     0.324667      33.6901 
8.33877e-05      3.80568      112.722 
0.000179350      9.95522      116.874 
2.75593e-05     0.424483      81.8699 
8.16265e-05     0.661022      87.3974 
9.48014e-05      9.09956      114.959 
1.37017e-05     0.403817      131.987 
2.62711e-05     0.350038      30.9638 
2.62798e-05      9.94459      115.173 
1.29258e-05      10.1162      116.793 
0.000809163      6.63875      94.3172 
0.000364304      9.06558      125.935 
0.00100163      8.91654      122.263 
3.43943e-05      7.29017      113.610 
0.000557298      7.30874      113.546 
0.000417471      9.08139      125.862 
5.78451e-05      7.82107      110.194 
0.000173382      7.06618      116.203 
0.000148396      7.80206      110.246 
0.000205460     0.107434     -68.2729 
0.000162771      3.07340      124.928 
7.56670e-05     0.170734      159.414 
0.000167777     0.984957      119.182 
0.000148029      2.86253      116.565 
0.000137202      3.58642      116.855 
0.000124330      9.34335      109.640 
0.000296772      10.5256      111.984 
0.000220174      11.0903      114.394 
0.000220846     0.396866      130.860 
2.58282e-05      7.81410      110.055 
5.09911e-05      4.01324      102.373 
7.41014e-05      9.67003      110.457 
9.85995e-05      10.1249      116.768 
0.000261792     0.366905      29.3961 
4.97451e-05      3.81093      112.530 
4.93150e-05      1.53682      122.254 
0.000171754      10.1221      110.836 
0.000135722      9.88370      116.826 
2.50882e-05      5.33581      104.763 
9.67660e-05      9.10088      114.820 
2.49629e-05     0.253192      161.511 
4.89295e-05      3.92080      108.431 
4.86830e-05     0.640401      88.1870 
0.000104031      9.11416      111.497 
0.000234655      5.61237      103.390 
6.12087e-05      9.94044      115.122 
6.88120e-05      4.00894      102.090 
0.000172283      1.29746      118.536 
0.000177235      5.30835      106.862 
2.40139e-05     0.271765      162.816 
2.38875e-05      5.33087      104.560 
0.000247513      3.79223      112.648 
0.000783709      9.19864      103.069 
0.000296750      6.31206      126.107 
0.000341071      8.01383      101.954 
0.000389200      6.14090      118.820 
0.000403808      6.84236      96.3784 
0.000416054      6.32844      125.999 
0.000401718      7.99401      101.984 
0.000365622      6.75145      98.3462 
8.55645e-05      7.28238      113.469 
0.000114197      1.51561      112.502 
4.72727e-05     0.334882     -17.3387 
0.000143773      2.31669      117.237 
0.000189514      9.10675      111.379 
6.83219e-05      7.83243      110.006 
0.000109221      4.00220      102.991 
0.000149909      3.07896      124.414 
2.29009e-05      1.28036      118.953 
0.000242880      2.85352      116.201 
0.000148901      10.1522      116.819 
0.000215292      6.84456      96.5407 
0.000120708     0.101837     -78.5245 
6.25583e-05      9.85648      116.774 
4.25711e-05     0.993150      117.591 
0.000139538     0.329594     -14.0995 
0.000102666      9.70252      110.641 
2.20103e-05     0.654914      148.732 
2.18726e-05      9.52287      111.825 
8.07053e-05      3.98344      105.437 
0.000158499      9.10908      114.931 
4.25947e-05      7.84484      109.822 
0.000176861     0.672314      149.628 
6.23699e-05      1.00269      118.617 
7.93804e-05      6.15800      118.732 
8.29948e-05      9.86562      116.879 
0.000155552      9.38596      108.897 
8.02266e-05     0.266484      166.981 
4.02383e-05      1.54732      122.865 
5.90361e-05      7.85147      109.956 
2.03009e-05      11.0718      114.437 
3.87073e-05      1.52348      113.206 
3.80644e-05      3.90877      108.804 
5.79242e-05      4.00490      101.817 
1.99618e-05     0.271765      72.8159 
0.000112499      5.29490      107.136 
0.000159967      4.86163      114.037 
9.64981e-05      4.66033      117.337 
9.45176e-05      4.61283      111.891 
7.47737e-05     0.930615      81.3276 
3.73765e-05      7.07515      116.350 
9.38013e-05      9.90604      118.322 
0.000129817      9.09781      125.788 
7.42728e-05      10.5181      111.882 
3.78933e-05     0.975239      118.143 
1.89792e-05     0.286260      77.8948 
1.89709e-05      9.91399      118.169 
1.88459e-05      3.99243      104.799 
1.88355e-05      1.55841      123.491 
3.65916e-05      10.8800      112.934 
5.44677e-05      9.72836      110.707 
3.65609e-05      10.1610      116.917 
5.45108e-05      5.59340      103.436 
5.44539e-05      8.00981      101.817 
3.61185e-05     0.286260      167.895 
1.83456e-05      7.86390      109.772 
3.60412e-05      1.32496      118.888 
3.60280e-05      6.31700      125.856 
1.82747e-05     0.107434      68.2729 
3.59445e-05      4.00080      101.533 
3.58012e-05      3.29678      119.839 
3.57064e-05      9.89252      116.927 
1.79422e-05      1.53097      123.262 
1.79032e-05      2.69418      118.842 
1.77102e-05      2.35803      122.881 
-0.000744923      12.3121      126.946 
-0.000712874      10.2111     -160.072 
0.000389250      12.1078      46.0722 
0.000329712      4.16942     -49.2768 
-0.000692221      10.1829      45.6389 
0.000534811      4.15465     -49.1013 
-0.000478658      8.21922      157.990 
-0.000715798      9.45556      54.7308 
0.000497438      13.5201      138.720 
-0.000548250      3.69977     -108.924 
-0.000499716      10.9342     -35.6949 
-0.000707945      6.85463     -48.0706 
0.000643850      10.1124     -50.2957 
0.000599502      10.7224     -123.511 
6.02730e-05      12.8970      140.979 
-0.000389532      5.24133     -91.3126 
-0.000267242      8.83881     -134.911 
0.000374706      12.1219      46.0032 
0.000372977      12.9097      140.910 
-0.000474875      7.68354     -116.432 
-5.88895e-05      7.25607     -84.3024 
-0.000166413      5.19605      171.588 
-0.000576729      8.43098      129.127 
0.000170314      13.5049      138.663 
0.000318231      12.6528     -138.522 
-0.000312791      10.3575      26.3664 
-0.000270789      7.69645      86.2770 
0.000366251      7.88022      90.5838 
-0.000209776      8.21337     -101.093 
0.000209503      9.82604      79.4435 
-0.000309784      10.3383     -31.2291 
-0.000512941      8.50067      53.8038 
-0.000208304      7.25409     -84.4616 
0.000261372      8.58430     -12.5152 
-0.000159907      5.60093      61.8796 
-0.000108030      9.52674     -81.4295 
0.000353943      13.1445     -41.7927 
-0.000300377      7.86575     -114.807 
0.000204045      6.76273     -75.2668 
0.000252657      10.3228      152.543 
-0.000158255      7.21464     -93.6555 
-5.38685e-05      10.0031     -169.632 
-0.000104280      1.95020      13.0310 
0.000150252      7.68514     -119.634 
0.000248520      9.41578     -103.386 
0.000148827      9.10296      40.9020 
-0.000194524      6.26298     -109.594 
-0.000292222      10.1119     -78.2465 
-0.000196825      8.23731      158.041 
-0.000198087      10.1073     -9.79730 
-0.000145921      7.29358      140.900 
-0.000148854      4.33202     -151.304 
0.000147273      11.2088     -144.807 
0.000146410      4.67881     -174.847 
0.000144832      4.01706     -72.9122 
0.000556816      1.80680     -26.2777 
9.75025e-05      8.89890     -38.3369 
0.000144303      13.6726     -132.629 
-5.01401e-05      7.30873      140.997 
-0.000191059      7.02118      4.41326 
-9.78209e-05      12.3824      139.389 
-9.75735e-05      13.2309     -131.689 
-4.97422e-05      9.42815      154.086 
-0.000144535      7.21338     -93.4949 
-0.000190862      8.92158     -127.897 
-0.000144616      7.71865      85.9862 
-9.63124e-05      12.3238      127.019 
-0.000189570      6.34096     -124.597 
-9.58951e-05      10.5437     -120.555 
0.000598240      8.33865      19.9139 
4.88263e-05      1.66358     -62.8108 
4.86579e-05      2.84049     0.802240 
-9.52232e-05      5.26158     -91.3075 
9.54431e-05      11.8214      132.327 
-9.48041e-05      9.08524     -24.3084 
-4.81055e-05      9.47637     -97.2741 
-9.39176e-05      11.3561     -44.7858 
-4.78985e-05      5.59177      62.0560 
9.47569e-05      10.9852      62.4547 
4.76179e-05      6.49146      3.35324 
9.27429e-05      8.58855     -12.6423 
-4.73172e-05      6.79276     -93.5467 
9.26659e-05      6.78492      173.402 
4.67199e-05      9.24568     -167.889 
-4.66121e-05      7.39812     -35.5343 
-9.21664e-05      9.80465      91.7543 
4.64573e-05      7.96051     0.577907 
4.59532e-05      9.41931     -64.1964 
-4.58360e-05      9.86240      125.590 
4.57780e-05      1.67259     -62.2163 
-9.57157e-05      10.1594     -121.311 
-4.56043e-05      13.7900     -134.235 
-4.54853e-05      7.72004      85.8418 
0.000236294      9.35495      168.282 
0.000222037      7.96073     0.718320 
0.000207527      9.33926      168.135 
-0.000928912      6.11261     -171.152 
-0.000722278      9.39364     -72.5305 
-0.000483582      7.26218      140.699 
0.000229884      7.34042      45.9940 
-0.000243858      10.8454      32.9589 
0.000546042      9.27208     -36.8476 
0.000152780      8.83302      81.6668 
-0.000302476      9.46666     -24.9969 
-0.000368797      6.61219     -53.8584 
0.000194991      9.56991      94.5558 
0.000235438      1.82499     -25.9961 
0.000314716      7.94047     0.720153 
-0.000267368      10.4337     -60.4851 
9.74363e-05      9.43314      168.998 
-0.000190239      10.8975     -158.803 
-0.000268156      3.33632      54.0219 
-0.000185710      6.89664      147.553 
-9.56898e-05      4.64358     -27.9979 
4.93125e-05      8.50367      166.258 
4.91215e-05      1.24505     -119.856 
-0.000317741      8.40094     -154.776 
0.000368560      10.9579      62.4997 
-0.000215933      1.96568      12.3438 
0.000134894      3.29582     -46.2361 
-0.000434323      10.2742      175.312 
-0.000244149      4.63528     -28.3366 
0.000136443      1.25526     -120.658 
0.000372913      8.85306      81.6858 
-0.000363760      6.08791      36.7216 
-0.000312522      7.27787      140.800 
0.000275218      9.54887      94.4439 
0.000230130      8.54712      166.189 
8.51399e-05      3.38565     -51.2351 
-0.000190697      10.0608     -11.4650 
4.52677e-05      7.96101     0.864124 
-4.50320e-05      8.27608      143.353 
-0.000127015      4.58142      151.865 
0.000203920      11.8080      129.433 
-8.45056e-05      10.4919      104.010 
-4.44559e-05      8.99223      33.0191 
0.000431701      12.7066     -39.2506 
-0.000163261      11.1984      132.322 
-0.000247034      5.45336      34.3920 
-8.61996e-05      3.03611     -109.626 
0.000239472      11.3414      125.959 
-0.000227569      5.93145     -124.975 
4.36114e-05      12.1196     -51.7685 
-4.35312e-05      9.48502     -24.9451 
-0.000219025      10.8902     -158.902 
-0.000297302      4.68679     -26.3476 
-4.32919e-05      10.1420     -96.3421 
4.32731e-05      9.45303      169.022 
-4.30161e-05      4.74518     -54.4349 
4.28767e-05      8.83586      81.5417 
0.000303032      8.43463      153.679 
-8.37879e-05      8.98632      33.1978 
-0.000159594      3.69349     -108.637 
-0.000118478      4.41685      167.978 
-0.000185166      8.28013      143.542 
-0.000110978      10.0241     -146.722 
-0.000226349      10.8284      33.0172 
-0.000152969      10.7667      19.6460 
0.000495306      7.30893     -158.492 
0.000121933      8.31960      19.9615 
0.000119560      12.0912     -51.7845 
0.000442714      1.27273     -120.193 
4.14769e-05      9.32420      167.993 
-0.000183945      10.1622     -96.3294 
-0.000189047      10.5251      133.460 
-4.08792e-05      10.8278      48.7453 
4.07788e-05      12.0344     -125.803 
0.000194630      8.73875      63.7870 
4.06072e-05      3.53346     -56.3099 
0.000140741      9.56832      94.4349 
-4.04095e-05      3.97545     -16.0642 
-4.02305e-05      6.88579      147.695 
7.76976e-05      9.44919      169.142 
0.000213426      10.4652      66.8138 
0.000179603      7.20083     -117.278 
0.000179138      6.74854      171.824 
-0.000154115      4.77344     -54.3786 
-0.000259759      3.02961     -109.279 
-0.000184614      9.63972     -132.561 
0.000141706      7.94075     0.866329 
-0.000226034      6.59645     -53.7584 
-3.92106e-05      10.8260      48.5940 
-3.90342e-05      6.56381     -57.5690 
-7.54299e-05      8.84206     -71.4021 
0.000234363      12.0458     -125.878 
7.48321e-05      6.75760     -75.4329 
0.000633910      12.0558     -50.1816 
-0.000241004      9.00329      33.1272 
-0.000238462      5.96925      145.515 
-3.81590e-05      8.86088      34.9821 
7.25649e-05      3.98095     -48.4615 
3.78897e-05      5.34069      1.07075 
0.000103742      3.28235     -46.4821 
0.000498160      12.4456     -125.912 
0.000167220      8.90583      42.1792 
0.000419515      8.24110     -61.7572 
-7.24110e-05      4.75699     -54.2364 
-9.79290e-05      3.98111     -16.3444 
0.000204300      10.9977     -155.159 
-0.000191201      9.83873     -116.303 
-7.00717e-05      6.90292      147.785 
0.000105441      12.0428     -50.2557 
-0.000437190      10.8126      48.6746 
-3.67501e-05      8.55208     -52.8918 
-0.000544514      10.1180     -77.5583 
-7.18478e-05      3.35274      54.2253 
-6.78697e-05      1.55541     -8.12619 
-0.000224205      12.0633     -45.0680 
-0.000289661      3.68707     -108.339 
-0.000136869      9.08902     -25.5496 
0.000165129      5.58171      169.050 
0.000309971      11.7602      126.286 
-0.000186410      10.8211      133.876 
0.000167890      10.3403     -126.424 
0.000414033      12.4706      132.596 
-0.000216388      11.6512     -120.880 
-0.000182239      4.87226     -6.59745 
0.000165705      6.59229     -136.476 
0.000167132      8.85591      81.5609 
0.000496085      10.8794     -38.2809 
0.000280353      11.8649     -52.3974 
0.000157589      9.46909      169.166 
0.000302577      11.3572      125.901 
-3.54697e-05      6.18485      92.2250 
-6.82240e-05      8.35640     -52.3913 
0.000100709      9.10430      80.5167 
9.95783e-05      8.04954      16.4516 
3.48351e-05      6.85187     -150.445 
-9.81593e-05      8.83561     -71.5266 
6.79896e-05      5.34036     0.861465 
3.47660e-05      9.82874     -126.309 
6.81128e-05      11.6285      36.3952 
0.000122631      9.30439      167.967 
0.000375671      10.0184     -108.146 
6.65342e-05      7.99361      3.29887 
-0.000155324      10.3588     -102.828 
0.000323065      10.9673      62.4058 
-6.57655e-05      1.98475      12.2234 
-0.000148680      6.42020      72.4143 
0.000431571      6.73800     -75.3896 
0.000351257      11.1985     -41.0877 
-0.000230731      7.23984     -90.3147 
-0.000126743      6.18564      92.4056 
-0.000148395      3.36463      53.9454 
-3.34944e-05      8.25983      143.270 
-9.46416e-05      1.41392      64.8766 
-3.32328e-05      6.55297     -57.7185 
0.000342414      8.41647      153.618 
-3.31529e-05      10.8065      133.951 
-0.000171897      9.65343     -132.650 
6.45924e-05      11.1313     -30.2053 
