! Center RA: 12 21 31.69052,  Dec: +28 13 58.50019 (2000.0)
! Established model.
! Flux (Jy) Radius (mas)  Theta (deg)  Major FWHM (mas)  Axial ratio   Phi (deg) T \
! Freq (Hz)     SpecIndex
 0.0995438      0.00000      0.00000 
 0.0267811    0.0202604      180.000 
0.00750221    0.0286526     -135.000 
0.00227706    0.0720098      56.4755 
0.00493164    0.0896014      63.6495 
0.00417970    0.0446338     -153.004 
0.00496105    0.0562440     -135.000 
0.000569336    0.0446338      63.0042 
0.00138941     0.107434      68.2729 
0.00213654     0.121759      80.4216 
0.00120131     0.140322      90.0000 
0.00279494    0.0848966      45.0000 
0.00326345     0.181229      96.4188 
0.000784430     0.161111      97.2243 
0.000702531    0.0286526      45.0000 
0.000122458    0.0562440      45.0000 
0.000814412     0.201375      95.7743 
0.000436167     0.223431      100.253 
0.000802735     0.243395      99.4042 
0.00149495     0.262662      98.7088 
0.000836075     0.141777      98.2159 
0.000701840     0.145849      105.824 
0.00167093     0.282706      98.0871 
0.000597278     0.152624      113.162 
0.00184590     0.100252      36.7841 
0.000107148     0.483985      97.1250 
0.000798661     0.506166      99.1272 
0.000352511     0.161670      119.778 
0.000713232     0.306099      101.310 
0.000313057     0.286260      102.105 
0.000483162     0.302778      97.5477 
0.000227602     0.100252      53.2159 
0.000379221     0.450910      102.787 
0.000201540     0.455823      105.272 
9.25732e-05     0.164706      103.973 
4.88158e-05     0.310708      104.976 
0.000700612     0.470689      102.241 
0.00183724    0.0720098     -123.524 
4.67753e-05     0.316312      108.392 
0.000271900     0.860287      107.566 
0.000126806     0.184432      102.453 
0.000133100     0.349107      113.700 
0.000127994     0.375627      115.183 
0.000639463     0.885104      108.435 
0.000119742     0.357396      116.565 
0.000182820     0.384685      117.915 
0.000825468     0.486913      99.4914 
0.000111281     0.766529      105.152 
0.000134550     0.189835      108.435 
9.62782e-05     0.302778      82.4523 
0.000272971     0.910821      109.241 
0.000228418     0.742542      104.036 
0.000101164     0.366905      119.396 
6.71708e-05     0.325253      79.3641 
0.000856578     0.747714      105.543 
0.000245486     0.923634      107.640 
0.000257371     0.329594      75.9005 
3.19855e-05     0.394577      120.515 
0.000541709     0.116465      31.0271 
0.000313961     0.377263      122.078 
0.000137240     0.107434      21.7271 
2.97532e-05     0.929974      108.830 
0.000209349     0.170734      110.586 
0.000442237     0.942245      107.281 
0.000253778     0.387976      124.520 
0.000327639     0.334882      72.6613 
9.20877e-05     0.880267      111.293 
0.000441539      2.31808      79.5558 
0.000585664     0.961610      106.922 
0.000560011     0.126477      18.3275 
0.000293428      1.44681      95.5657 
0.000244686     0.503350      96.8496 
0.000461379      3.07012      114.228 
0.00103552      8.16475      106.213 
0.000463798     0.404832      122.895 
0.000158001     0.887825      112.512 
0.00106028      2.05941      82.1888 
0.000470219      8.11580      107.498 
0.000230283      7.57411      105.468 
0.00104759    0.0896014     -116.350 
0.000355545      3.09905      108.435 
0.000429539      1.42665      95.6446 
0.000307937      2.31449      80.0491 
0.000122161      7.59364      105.427 
0.000864303      9.55034      108.436 
0.000314569     0.869143      113.023 
8.43565e-05      3.09693      114.416 
0.000553629      8.34869      108.433 
0.000359143      8.15933      106.081 
0.000324857      6.77026      106.828 
0.000391170      7.58827      105.280 
0.000102206     0.178866      116.673 
0.000373770      7.35823      106.909 
0.000393988     0.310708      75.0240 
6.82373e-05     0.399806      126.913 
2.98307e-05     0.316312      71.6080 
0.000115217     0.786014      82.7054 
0.000184861      3.25366      110.889 
0.000192248      7.59453      111.632 
0.000624078     0.981011      106.578 
9.87083e-05      9.67868      107.311 
1.46148e-05      8.30842      102.227 
4.20481e-05      3.10504      114.744 
1.44643e-05      8.28862      102.257 
0.000401621     0.447333      116.608 
0.000220117      8.31273      102.364 
0.000407578      3.09270      108.079 
2.73871e-05    0.0633577     -108.650 
0.000518663      2.89897      117.971 
0.000290422      7.60202      111.774 
0.000412450      7.93068      113.009 
0.000136344      7.40671      115.594 
0.000243236      8.09648      107.542 
0.000384031      2.33445      80.1350 
0.000337821      7.90510      112.934 
2.60890e-05     0.457182      113.199 
0.000584950      7.42499      115.527 
0.000222901      8.29294      102.394 
0.000170460      9.65332      107.232 
2.57921e-05     0.788842      81.2456 
0.000692210      6.75087      106.878 
8.11267e-05     0.188432      121.981 
2.47658e-05     0.808873      81.4640 
0.000291628      9.18989      108.396 
8.09284e-05      7.41661      115.391 
0.000313182     0.877265      114.241 
6.81311e-05     0.396866      130.860 
5.66174e-05      3.07849      114.572 
0.000121266     0.812127      80.0503 
0.000106631      7.69934      103.062 
0.000184076      7.37689      106.864 
0.000245008      7.71835      103.030 
0.000256271      3.26094      111.221 
6.39228e-05      8.42546      100.670 
0.000197905      7.21988      105.424 
0.000100003      1.42870      96.4233 
0.000133455      9.64755      107.121 
3.17670e-05     0.714035      101.334 
0.000163948      8.44914      100.780 
-0.000302996      8.78347      106.538 
7.93820e-05      7.25674      112.181 
4.99396e-05      3.11358      115.083 
0.000223024      8.29731      102.530 
-0.000442044      6.66013      104.079 
0.000105996      8.14315      101.476 
0.000221787      7.68203      113.964 
5.52271e-05     0.199903      126.913 
7.40048e-05     0.815725      78.7004 
2.79811e-05     0.710331      99.7310 
0.000121980     0.412159      119.085 
0.000281046      7.59146      111.971 
3.05195e-05      7.69479      102.915 
2.79631e-05      7.61443      102.284 
0.000161101      9.19573      108.119 
7.99170e-05      9.61066      106.815 
0.000124635      3.08665      114.902 
0.000392201      8.37182      100.181 
0.000124760      7.27551      112.121 
0.000239749      3.08670      107.735 
0.000223517     0.306099      78.6901 
5.26968e-05      2.90853      118.324 
-0.000182841      8.17499      111.230 
3.55835e-05      7.37852      110.304 
0.000121802      8.09040      107.405 
0.000245408      7.61015      102.135 
-0.000227100      6.57652      106.063 
0.000101260      9.70866      106.271 
-0.000109094      2.67061      112.920 
8.99617e-05      1.41176      97.3290 
4.21028e-05      8.95063      106.086 
-0.000426092      6.92756      112.938 
0.000187214     0.895778      113.709 
0.000403918      8.70075      110.312 
0.000136911     0.707189      98.1129 
8.00096e-05     0.839713      77.6156 
6.54200e-05      7.21452      105.269 
2.45126e-05      7.41549      115.735 
2.44390e-05     0.172194      125.422 
0.000171121      1.38821      101.632 
0.000261035      8.36720      108.391 
0.000233055      8.30157      102.662 
5.35514e-05      9.58613      106.733 
0.000197015      9.58032      106.617 
8.09741e-06      9.17686      108.552 
0.000312210      8.96938      106.051 
8.77979e-05      7.37104      106.714 
1.56504e-05     0.212689      131.281 
-0.000209479      2.67856      113.319 
4.46369e-05      9.28358      106.520 
3.79309e-05      9.17065      108.832 
-1.55928e-05      8.48772      110.699 
-0.000376766      8.78905      106.660 
0.000235999      8.22240      113.510 
0.000513827      7.23407      105.227 
-5.17222e-05      8.48058      110.571 
-0.000605494      6.91988      105.762 
0.000178695      7.24940      112.038 
0.000183244      8.70279      104.644 
1.47206e-05     0.184676      130.551 
5.19618e-05      7.75440      107.876 
-7.41548e-06      6.92524      113.304 
0.000291200      6.75678      107.042 
-0.000279003      2.82049      108.184 
4.21634e-05     0.844290      76.2725 
1.19351e-05      7.06213      110.384 
0.000258615      7.06922      110.538 
9.92588e-05      3.06076      114.724 
7.41736e-05      2.33801      79.6458 
0.000122350      8.37243      113.808 
0.000174673      9.20272      107.844 
-0.000435671      6.57115      105.900 
2.70827e-05     0.226037      135.000 
-0.000185310      8.49955      110.523 
2.62714e-05     0.835602      101.027 
0.000100100      9.15219      108.872 
2.69169e-05      7.91272      113.064 
7.42435e-05     0.402700      116.565 
9.78869e-05     0.986983      107.705 
7.79947e-05      7.42391      116.912 
0.000130843      9.72811      106.237 
0.000155724     0.284207     -140.679 
5.18825e-05      7.70055      113.902 
6.49753e-05      7.13045      113.473 
1.99723e-05      8.30603      102.798 
-0.000112139      8.20024      111.308 
5.62212e-05     0.100252     -126.784 
0.000231271     0.863255      76.5798 
1.95185e-05      8.30429      103.935 
0.000142214      7.93862      113.143 
0.000100137      9.27805      106.405 
6.54096e-06      7.43424      115.326 
6.53958e-06      8.30974      103.499 
5.56185e-05      7.71381      102.883 
0.000274992     0.516406      35.5377 
0.000198794      1.40070      99.8711 
-0.000321248      2.66066      113.485 
0.000207465      8.30919      104.070 
4.64928e-05      7.44393      115.118 
0.000198640      7.70878      114.040 
9.06326e-05      3.07345      108.196 
1.74023e-05     0.465536      115.491 
0.000144459     0.903799      114.842 
-9.45579e-05      1.14557      73.7968 
5.38041e-05      2.35794      79.7343 
0.000373236      6.73742      107.093 
0.000209829      7.11968      113.682 
0.000163159      7.43276      117.046 
6.79546e-05      3.26805      111.540 
2.90098e-05     0.327950      142.343 
0.000104307      7.98499      114.253 
1.19342e-05      1.39737      99.0526 
0.000154805      8.68319      104.678 
0.000112070      3.03390      114.537 
6.05816e-05     0.733911      101.023 
2.32978e-05      7.07635      110.691 
-0.000130681      6.98061      104.435 
-0.000270465      7.24202      108.185 
1.15925e-05      8.23051      113.639 
5.80094e-06     0.297155      70.3754 
9.08240e-05      8.19575      113.436 
0.000138918      2.36150      79.2685 
1.61102e-05      8.07834      102.729 
6.20861e-05      8.64073      99.5932 
-0.000184248      9.38596      108.897 
-8.64209e-05      6.93838      112.719 
2.62424e-05      8.34844      100.074 
9.44109e-05      7.63423      102.252 
-0.000127354      1.12613      73.5092 
1.09187e-05      8.29593      103.096 
0.000130827      2.88987      117.630 
3.49315e-05      8.12330      101.504 
0.000114687     0.993090      108.777 
2.61102e-05      8.29153      102.965 
1.06246e-05      8.68458      110.774 
5.32178e-06      8.10973      107.362 
3.94717e-05     0.344213      144.404 
-0.000109116      3.08861      119.056 
-0.000103918      7.80936      115.644 
-6.93288e-05      8.55703      108.392 
1.03109e-05      9.69671      107.650 
2.52042e-05      7.42431      115.876 
-0.000146863      7.97545      108.571 
-3.04428e-05      6.93087      112.570 
4.87992e-05      8.67259      110.942 
2.91956e-05      7.22372      111.947 
-1.98147e-05      8.19317      111.181 
3.90909e-05     0.269397     -138.048 
-8.29230e-05     0.429314     -27.8192 
-0.000101994      8.55220      109.535 
1.96752e-05      2.04222      81.5483 
5.83815e-05      7.43286      116.702 
1.01465e-05      7.22877      105.072 
3.87314e-05      8.52500      112.775 
3.38003e-05      7.45255      115.259 
2.90721e-05      9.72246      106.123 
0.000134677      6.73149      106.928 
4.88597e-05     0.878599      78.1718 
7.22397e-05      8.70580      110.016 
9.88144e-06     0.737890      102.510 
-9.94846e-06      6.93667      114.347 
1.93811e-05      9.13936      109.029 
-5.29431e-05      8.79488      106.787 
4.99467e-06      8.69374      110.187 
3.85740e-05      8.28701      102.828 
4.79981e-05     0.394056      113.929 
2.88482e-05      7.36546      106.568 
3.38108e-05      7.93735      105.192 
-2.90805e-05      6.93445      112.202 
-2.39384e-05      6.94505      114.499 
2.38367e-05      8.24653      113.892 
2.35445e-05      8.39097      113.752 
-9.58739e-06     0.753057      140.377 
2.82750e-05     0.885454      115.392 
-3.29734e-05      7.25368      116.353 
-1.42046e-05      6.93012      111.682 
4.75705e-06      3.06741      107.850 
-2.34598e-05     0.765647      139.253 
1.87071e-05      7.97669      114.120 
1.40178e-05      3.04237      114.884 
1.87236e-05     0.874671      79.4709 
-1.86349e-05      6.92266      111.526 
4.69846e-06      2.93600      114.122 
4.65375e-06      7.94268      105.333 
4.62514e-06      8.25476      114.021 
4.62208e-06      2.91821      114.278 
-0.000778673      4.51227     -83.1232 
0.000447265      6.14438      119.652 
0.000395876      4.47302      120.351 
0.000349198      6.13476      119.494 
0.000440754      4.87952     -7.29769 
0.000424751      6.83683     -30.0179 
0.000576502      8.55717     -158.470 
0.000173244      11.0608     -126.250 
-0.000517732      12.8972     -131.226 
0.000267747      10.4638      164.024 
-0.000454468      3.38572      75.6404 
-0.000357896      7.62302     -17.2470 
-0.000215993      11.8163      49.4607 
-5.63226e-05      10.1533     -80.7027 
-0.000251677      5.38087     -179.145 
0.000312578      7.78481     -140.421 
-0.000161631      8.80839      9.80496 
-0.000392958      10.1333     -80.6842 
0.000108129      11.0723     -126.332 
-0.000254818      10.3104     -135.708 
-0.000104341      7.32469     -36.3381 
-0.000344929      8.91987     0.130141 
0.000244701      7.69674      52.1760 
0.000251453      9.05259      129.349 
5.28625e-05      9.84580      74.3251 
-0.000337059      8.63742      129.554 
0.000248056      2.70144     -55.2505 
0.000248672      9.77594      21.1048 
0.000321303      11.0886     -126.270 
0.000380886      4.66769      164.599 
0.000192702      9.84035      74.4387 
0.000194098      9.23754      147.375 
-0.000286998      8.83182      9.91210 
0.000332450      9.87488      8.73722 
0.000139993      11.5603      123.139 
0.000269526      10.3985      16.3072 
-0.000142100      8.27369     -150.771 
-0.000189448      8.08218      123.495 
0.000279549      13.5336     -134.820 
-0.000185750      9.33926     -78.1348 
-9.53113e-05      11.8289      49.3888 
-0.000324991      9.01401     -86.8218 
-0.000144019      7.61704     -17.1015 
-0.000230810      8.93438      16.6527 
-0.000773420      7.13090      93.2153 
-0.000141764      13.9725      134.767 
0.000186967      10.5782     -140.140 
0.000229149      10.8765      37.2280 
-0.000274298      11.4217      40.3849 
0.000226956      11.0375      40.4450 
-4.82506e-05      1.61295     -107.322 
0.000139450      8.97001     -33.2660 
-0.000181710      10.8209     -37.7178 
0.000236714      13.8185      44.0033 
0.000181081      4.06039      179.714 
9.23508e-05      4.54729     -18.1928 
0.000182397      7.76921     -140.326 
-9.29142e-05      9.54439     -91.8022 
4.73990e-05      3.44357      83.3303 
-0.000182594      9.34173      145.730 
4.70945e-05      8.09574     -161.115 
-9.07926e-05      7.08626     -2.42762 
9.12044e-05      4.04140      40.7836 
-0.000223917      11.4855      125.072 
0.000135613      3.04146     -88.1196 
-4.66547e-05      2.38056      179.043 
-0.000177685      1.60703     -106.633 
0.000134459      10.3512      158.940 
0.000178643      9.04023      129.253 
-0.000179397      5.94020     -90.3836 
0.000177808      9.26019      147.613 
-9.07567e-05      12.8991     -131.103 
-9.05698e-05      3.73927     -154.669 
8.97734e-05      9.36197      86.0796 
-4.58235e-05      11.4880     -126.792 
0.000133410      3.44598      82.9957 
-0.000177359      9.10222     -94.0324 
-4.57131e-05      8.29858     -151.027 
0.000132648      9.79414      21.0637 
9.04201e-05      10.5184     -153.095 
0.000132397      10.8390     -56.8963 
-0.000132795      11.5556      121.051 
0.000132417      9.26289     -91.4855 
8.86258e-05      10.2367      47.7690 
-8.81419e-05      3.37324      48.8512 
-8.89381e-05      8.81186      9.93478 
8.81983e-05      12.3373      124.232 
0.000137590      9.29825      19.2143 
-4.43115e-05      6.49130     -50.3751 
-4.43215e-05      2.40049      178.567 
-4.42658e-05      10.3249     -135.786 
6.01167e-05      12.5383     -48.4257 
-4.40868e-05      9.06095      27.1868 
8.70277e-05      11.3710      35.4783 
4.38661e-05      7.02398      1.95911 
-4.37985e-05      9.16935      136.947 
8.64450e-05      10.5276     -152.997 
-4.34882e-05      6.52815      81.7190 
4.35176e-05      7.96582      33.5314 
4.34417e-05      8.58453      49.6301 
-4.30991e-05      9.56527     -91.9151 
-4.31123e-05     0.707189     -81.8871 
4.31141e-05      10.4833      164.055 
4.29786e-05      9.07999      58.2355 
-4.28999e-05      6.79851      83.9175 
-4.27031e-05      7.35500     -46.1037 
0.000158622      11.1006     -126.354 
4.26029e-05      1.57042      6.58508 
4.25144e-05      7.78757     -140.631 
-0.000437319      11.6546     -56.6916 
0.000467835      9.11011     -66.5876 
-0.000233257      4.87604      56.3784 
-0.000475476      4.03167     -46.4027 
-0.000457013      9.33178      27.9931 
4.62940e-05      7.85398      25.6519 
4.60814e-05      4.03378     -158.777 
0.000132120      13.1401     -47.8377 
8.80981e-05      5.70882      163.726 
-0.000318862      11.6936      137.635 
-0.000240707      9.05172      38.5411 
-4.48860e-05      12.2159      40.4184 
0.000393863      4.01490     -158.672 
0.000233990      9.51097     -150.523 
0.000161022      7.83572      25.7160 
-8.63887e-05      5.56166      54.3671 
-0.000197480      7.61539     -73.9902 
0.000233831      3.09794     -136.305 
0.000120178      3.92980      51.6136 
-0.000270690      4.90340     -67.2021 
-0.000660802      12.2004      40.4801 
0.000157764      13.1251     -47.7783 
-0.000219548      11.5014     -30.3996 
-0.000159496      9.13108     -58.4338 
4.24930e-05      8.11336      27.4490 
0.000119583      3.73494     -165.740 
0.000241149      7.08285     -103.054 
0.000228018      9.15347     -75.4477 
0.000154064      10.7253     -57.6453 
-0.000119774      9.31412     -35.7389 
7.93446e-05      4.00721      63.3054 
-0.000150561      4.88729      56.1806 
-0.000185173      5.23756     -107.329 
0.000151614      3.76610      62.4802 
-4.04705e-05      5.14092     -144.020 
0.000112049      4.93842      166.414 
0.000354912      6.06095      90.9435 
-0.000174860      3.80175     -64.1127 
0.000177720      8.14068      27.5099 
-3.93919e-05      5.57305      54.2040 
-0.000109156      9.55946     -57.4726 
7.65690e-05      5.36005      90.2166 
3.86648e-05      9.08994     -72.7213 
3.86410e-05      4.23071     -157.187 
-3.85725e-05      6.51188     -137.489 
0.000420507      9.64206     -148.483 
-7.04013e-05      5.80824     -118.598 
-7.25333e-05      7.85920     -114.348 
-0.000246812      11.1064     -61.4974 
-7.34405e-05      5.12904     -144.203 
-3.74961e-05      5.50657      47.5073 
0.000142381      4.21273     -157.084 
0.000107367      7.68294     -172.672 
-0.000288238      9.28282      40.1045 
-6.99749e-05      5.90246     -91.5517 
-6.99761e-05      8.83732      116.332 
-3.68188e-05      6.42706     -137.522 
-0.000167787      9.29768     -35.8118 
0.000121246      12.3609     -48.9358 
0.000291713      11.0834     -64.4516 
7.09425e-05      11.1954      60.4590 
-0.000358984      12.5091     -129.877 
7.08744e-05      10.6473      150.644 
0.000220619      5.36016      90.4251 
-6.88486e-05      6.55315     -137.348 
-6.94348e-05      5.62039      53.5401 
0.000119582      9.02980     -51.0242 
0.000125278      10.7338     -45.3767 
-6.86815e-05      5.49165      47.3645 
-0.000358137      9.12049     -58.5423 
6.64553e-05      10.5931     -150.726 
