! Center RA: 12 21 31.69052,  Dec: +28 13 58.50011 (2000.0)
! Established model.
! Flux (Jy) Radius (mas)  Theta (deg)  Major FWHM (mas)  Axial ratio   Phi (deg) T \
! Freq (Hz)     SpecIndex
 0.0433414     0.185540     -104.036 
 0.0142687     0.200125     -102.995 
0.00645792     0.171026     -105.255 
0.00238219    0.0300000     -90.0000 
0.00327139    0.0150000     -90.0000 
0.00818896     0.182483     -99.4623 
0.00170196    0.0807775      111.801 
0.00168682     0.156605     -106.699 
 0.0117130    0.0450000     -90.0000 
0.000962403    0.0874643      120.964 
0.00542168     0.100623      116.565 
0.00237732     0.167705     -100.305 
0.000680389     0.108167      123.690 
0.00461447     0.120934      119.745 
0.00209007     0.195576     -94.3987 
0.000720014    0.0474342     -108.435 
0.000723228     0.134164      116.565 
0.000409294     0.129035      125.538 
0.000137280     0.141510      122.005 
0.000268665     0.204022      107.103 
0.000756020     0.222991      109.654 
0.000368340     0.117154      129.806 
0.00177054     0.210000     -90.0000 
0.000474057    0.0335410     -116.565 
0.000468477     0.237171      108.435 
0.000115528     0.127279      135.000 
0.000762293     0.242332      111.801 
0.00165071     0.117154      140.194 
0.000306513     0.256320      110.556 
0.00243421     0.261964      113.629 
0.00136758     0.210535     -85.9144 
0.00119689     0.438092      128.047 
0.00127739     0.225499     -86.1859 
0.00119217     0.479296      110.136 
0.000637957     0.447493      129.560 
0.000583197     0.212132     -81.8699 
0.000649221     0.729006      126.634 
0.000325992     0.346302     -94.9697 
6.34768e-05     0.828402      121.675 
0.000123745    0.0474342     -71.5651 
0.000123701     0.457193      131.009 
0.000245474     0.849058      122.005 
0.000123810     0.345326     -92.4896 
6.03591e-05     0.360312     -92.3859 
! Tentative model.
! Flux (Jy) Radius (mas)  Theta (deg)  Major FWHM (mas)  Axial ratio   Phi (deg) T \
! Freq (Hz)     SpecIndex
0.00100018     0.483037      126.158 
8.61868e-05    0.0750000      126.870 
0.000731853    0.0670820      116.565 
0.000758795     0.504009      126.529 
0.000227407    0.0335410     -116.565 
0.000524800     0.694874      122.661 
0.000832020    0.0474342     -108.435 
0.000218821    0.0807775      111.801 
0.000147181      2.33499      110.298 
7.35125e-05     0.225000     -90.0000 
0.00111822     0.240000     -90.0000 
0.00100284      2.32093      110.426 
0.000343268     0.492037      127.569 
0.000929214     0.715612      123.024 
0.000270322    0.0948683      108.435 
0.000306590    0.0618466     -104.036 
0.000339400     0.109202      105.945 
0.000771579     0.242332      111.801 
0.000181900      2.32621      110.772 
0.000636821     0.736376      123.366 
0.000118090      2.27353      110.468 
0.000454880     0.255000     -90.0000 
5.77775e-05      2.34024      110.642 
0.000223506      2.25425      110.244 
5.68618e-05      2.54775      109.608 
0.000423116      2.56693      109.811 
0.000367257     0.757166      123.690 
0.000708929     0.255441     -86.6335 
0.000306584      2.23500      110.016 
0.000104001      2.34907      110.171 
0.000148491     0.777978      123.996 
0.000142544     0.237171      108.435 
4.91237e-05      2.57205      110.126 
9.71053e-05     0.798812      124.287 
0.000142959      2.59131      110.323 
0.000363098      2.21579      109.784 
0.000141110     0.495227      125.134 
4.75595e-05     0.811249      123.690 
9.22891e-05      2.35806      109.703 
0.000318992     0.819665      124.563 
0.000404204     0.270416     -86.8202 
0.000138145     0.261964      113.629 
9.18508e-05      2.59656      110.634 
0.000389072    0.0600000     -90.0000 
0.000132940      2.61590      110.825 
4.48308e-05     0.474342      124.695 
0.000129137     0.123693      104.036 
0.000208081     0.316425      121.430 
0.000128256     0.486749      123.690 
0.000171976     0.840536      124.824 
8.48710e-05      2.35304      109.359 
4.30518e-05      2.64068      111.318 
8.47285e-05     0.285394     -86.9872 
4.25829e-05      2.67959      111.682 
4.21761e-05      2.21076      109.418 
0.000205193      2.69908      111.861 
0.000204337     0.849191      125.655 
8.30567e-05     0.315000     -90.0000 
0.000528447      2.19662      109.549 
0.000197259     0.478592      122.196 
4.08532e-05     0.330000     -90.0000 
4.07911e-05     0.218403      105.945 
0.000159294     0.330341     -87.3974 
0.000274537      2.89387      107.496 
0.000155948      2.34811      109.014 
4.00695e-05     0.138293      102.529 
3.95917e-05     0.732393      124.992 
7.78563e-05     0.241868     -82.8750 
0.000229051     0.858021      126.469 
0.000507440    0.0750000     -90.0000 
3.87899e-05     0.152971      101.310 
0.000330100     0.345326     -87.5104 
0.000149424      2.71860      112.036 
3.82421e-05     0.200125      102.995 
0.000363394     0.324500      123.690 
0.000477108      2.90373      107.124 
0.000276974     0.229456     -78.6901 
0.000109499     0.476471      118.179 
0.000177002      2.35748      108.550 
7.09306e-05     0.182483      99.4623 
0.000105554     0.720156      125.676 
0.000178574     0.879005      126.674 
0.000103022     0.150748      95.7106 
0.000314382      2.90818      107.407 
0.000169505     0.469574      116.565 
0.000168479      2.72427      112.329 
0.000264104     0.888046      127.451 
0.000498633     0.360312     -87.6141 
0.000132021      2.19164      109.179 
0.000159296      2.35275      108.204 
3.27737e-05     0.476707      114.146 
0.000119406     0.708025      126.384 
9.32348e-05     0.165680      95.1944 
0.000241212      2.17748      109.309 
0.000211295     0.470771      112.479 
3.15166e-05      2.73815      112.209 
6.20804e-05     0.214767     -77.9052 
0.000211663     0.897246      128.211 
0.000119207      2.74385      112.499 
0.000118572     0.345326      124.380 
0.000481443      2.91807      107.038 
5.96152e-05      2.44872      115.780 
0.000748113     0.218403     -74.0546 
5.89519e-05      2.34811      107.856 
5.72758e-05     0.150000      90.0000 
2.88613e-05      2.45529      116.095 
0.000243501    0.0912414     -80.5377 
0.000164739     0.909079      127.626 
8.25635e-05     0.180624      94.7636 
2.85858e-05      2.33384      107.969 
5.62681e-05      2.46192      116.409 
5.57463e-05      2.08073      111.571 
0.000378551     0.918314      128.367 
0.000108928     0.465242      110.772 
0.000578826     0.375300     -87.7094 
2.78453e-05      2.32925      107.618 
0.000106716      2.48878      116.874 
2.75285e-05     0.594348      132.955 
0.000398293      2.07239      112.109 
7.99342e-05      2.32476      107.266 
2.69851e-05      2.74963      112.788 
2.68077e-05      2.59062      118.346 
0.000125157     0.763823      109.502 
0.000127862      2.61095      118.479 
0.000125309     0.474342      108.435 
7.64007e-05      2.92250      107.319 
9.61907e-05     0.195576      94.3987 
5.04831e-05     0.604669      133.995 
2.57735e-05      2.17257      108.935 
5.06995e-05      2.88476      109.754 
5.04632e-05      2.32035      106.912 
2.54180e-05     0.165000      90.0000 
0.000260161     0.333054      125.838 
0.000650007      1.19897      133.479 
0.000100462     0.927699      129.094 
0.000116506      2.46863      116.721 
7.20185e-05      2.31603      106.557 
0.000264923      2.63129      118.610 
9.38329e-05     0.180000      90.0000 
0.000137865      2.88987      110.034 
7.68070e-05     0.817328      132.769 
2.37316e-05     0.615183      135.000 
0.000111697     0.469814      106.699 
0.000153783     0.758947      108.435 
4.56832e-05     0.604669      136.005 
4.58250e-05      2.31180      106.201 
0.000105547     0.135831      83.6598 
0.000175827      2.93241      106.952 
4.43797e-05      2.30766      105.843 
0.000175480     0.827587      133.531 
0.000535534      2.06423      112.652 
0.000105486      2.48136      103.280 
0.000103864     0.615549      136.975 
0.000178411     0.195000      90.0000 
0.000120568      2.44849      116.565 
6.23673e-05      2.89504      110.313 
0.000159202      2.95115      107.146 
2.10199e-05      2.29965      105.124 
4.08291e-05      2.49596      103.201 
0.000120891     0.390288     -87.7974 
0.000115724     0.465725      104.931 
2.02161e-05      2.29578      104.763 
6.56307e-05     0.768668      107.021 
5.87347e-05      2.90028      110.591 
0.000449996     0.848793      133.568 
0.000127888    0.0764853     -78.6901 
0.000147995      2.49257      102.865 
0.000287876     0.391152     -85.6013 
1.95412e-05      2.29201      104.400 
0.000111243     0.626598      137.911 
0.000127275      2.63851      118.896 
0.000101391      1.20934      133.995 
3.61969e-05      2.68265      105.901 
1.89183e-05      2.28832      104.036 
9.74030e-05     0.764412      105.945 
0.000209935      2.96992      107.337 
7.25749e-05      2.90559      110.868 
0.000390922      1.22017      133.506 
3.68627e-05     0.120934      82.8750 
1.85827e-05      2.28473      103.671 
1.84168e-05      2.67858      105.593 
5.28859e-05     0.210535      94.0856 
1.83751e-05      2.42838      116.407 
3.58752e-05      2.28123      103.305 
0.000143866      2.36801      116.727 
1.78440e-05     0.138293      77.4712 
1.77808e-05      2.60504      103.316 
0.000181894     0.462088      103.134 
0.000161834     0.637809      138.814 
-4.69331e-06      2.29245      102.854 
0.000155673     0.123693      75.9638 
6.67550e-05      2.91097      111.143 
3.35478e-05      2.65165      118.740 
3.37065e-05      2.28916      102.488 
0.000119287     0.760427      104.859 
0.000189736      2.47795      102.943 
0.000318012     0.210000      90.0000 
8.81121e-05      2.60162      102.995 
0.000364598     0.406110     -85.7636 
6.40902e-05      2.28596      102.121 
0.000199562      2.70541      106.425 
0.000197543      2.65890      119.023 
0.000104527      2.98873      107.526 
1.59941e-05      2.37479      117.051 
0.000176155      2.05040      112.813 
0.000155944      2.99328      107.799 
0.000572890      2.36144      117.216 
6.13786e-05      2.91641      111.418 
4.54365e-05      2.28286      101.753 
0.000181829      1.23055      134.012 
0.000197964     0.649173      139.686 
5.77578e-05      2.29456      101.310 
4.30882e-05      2.93586      111.584 
7.88664e-05     0.756720      103.761 
0.000204979      2.05626      113.199 
2.84027e-05     0.106066      81.8699 
1.42850e-05      2.58366      102.745 
0.000237720      1.24138      133.531 
0.000106225      2.29166      100.942 
6.64040e-05      2.94142      111.856 
0.000484519     0.458912      101.310 
1.35628e-05      2.87640      106.356 
0.000348614      1.51611     -27.0721 
0.000108308     0.753293      102.653 
7.05577e-05      2.87222      106.069 
3.78055e-05    0.0912414      80.5377 
0.000232939     0.422404     -83.8845 
7.40509e-05      1.67920      108.759 
0.000179091      3.01216      107.984 
8.37288e-05      2.94703      112.126 
8.40176e-05      2.28886      100.574 
0.000394395      1.25176      134.029 
0.000143101      2.66621      119.305 
0.000122708      1.67443      108.273 
8.73179e-05      2.70121      106.120 
4.47329e-05    0.0474342      108.435 
0.000105515     0.750150      101.535 
0.000166095      2.30092      100.138 
0.000102968     0.660681      140.528 
0.000104461      3.01683      108.255 
0.000399922      2.95271      112.396 
0.000764883      1.62783      16.5981 
0.000272865     0.210535      85.9144 
0.000375640      5.30850      123.825 
0.000192097     0.439118     -82.1467 
0.000140461     0.222991     -70.3462 
9.52884e-05      2.16094      31.3730 
0.000100725    0.0335410      116.565 
4.02716e-05      5.18907      133.243 
4.01126e-05      2.17810      36.3175 
2.04738e-05     0.747295      100.408 
1.98109e-05    0.0212132     -135.000 
2.96871e-05      2.06221      113.582 
4.84508e-05      1.66979      107.784 
7.65092e-05     0.901124      87.1376 
3.85833e-05     0.838525      132.825 
9.11929e-05      5.20000      133.130 
6.33891e-05      2.16603      36.5525 
4.47401e-05      2.04848      113.749 
0.000157799     0.651249      141.546 
9.37153e-06      2.88663      105.986 
1.84223e-05     0.225000      90.0000 
4.44425e-05      2.29833      99.7697 
3.61171e-05      1.64652      16.9492 
0.000258271    0.0212132      135.000 
0.000207287      3.03579      108.435 
4.45656e-05      4.34534      125.446 
0.000188438      1.14630      42.8789 
0.000182186      1.50277     -27.3324 
0.000115577      2.72839      106.941 
6.85224e-05      1.79355      104.036 
0.000250191     0.916106      87.1844 
0.000142788      1.14728      41.8202 
8.83533e-06      1.66527      107.292 
8.81665e-06      2.62718      96.5569 
0.000178633      5.85000      112.620 
3.78652e-05      2.14814      31.5813 
5.55186e-05      2.28616      100.204 
9.10321e-05     0.453982     -82.4054 
8.08022e-05      1.36310     -24.0265 
8.64566e-05      2.62551      96.2317 
7.48961e-05      2.35462      116.892 
4.22574e-05      1.26259      133.556 
5.38522e-05      2.17500      36.8699 
-0.000792622     0.742462     -8.13010 
4.87635e-05      5.31265      123.600 
0.000183260      4.33666      125.284 
1.65899e-05      2.67358      119.585 
7.44461e-05      5.21027      133.250 
0.000108232     0.495227     -88.2643 
8.69686e-05      2.05456      114.132 
3.22781e-05      1.27297      134.045 
5.96371e-05      2.16603      30.8277 
1.58852e-05      2.68663      119.427 
0.000117030      1.36360      129.644 
5.06371e-05      1.78997      103.570 
0.000108454      3.59753      133.141 
6.51291e-05      2.69404      119.705 
2.27876e-05      2.00647      28.0977 
7.72825e-06     0.342053      127.875 
0.000171962      2.16302      37.1083 
0.000158040      1.04957     -120.964 
0.000159715      1.33778     -17.6223 
0.000335914      5.85579      112.755 
9.47342e-05      2.75159      107.447 
5.27050e-05      5.06185      136.801 
4.74074e-05     0.456207     -80.5377 
7.20713e-05      2.01274      27.5199 
6.78398e-05      1.34942     -24.2858 
0.000324222     0.476707      102.724 
4.11732e-05     0.510000     -90.0000 
7.63389e-05      2.62393      95.9061 
4.03229e-05      1.15850      41.3255 
6.07175e-05      2.28355      99.8336 
1.33187e-05      2.91961      106.107 
7.68046e-05      1.11496      17.2161 
0.000294827      1.37518      129.245 
0.000337881     0.510221     -88.3153 
0.000114319      3.58729      132.967 
6.26597e-05     0.921005      127.057 
1.29903e-05      2.70150      119.982 
0.000234086      1.12929      16.9908 
4.11672e-05     0.228473     -66.8014 
8.89588e-05      2.34163      25.4160 
6.45523e-05      5.22056      133.370 
1.85600e-05      2.72199      120.097 
1.24420e-05      5.32024      121.629 
6.19933e-05      4.70142      136.939 
6.17274e-06      2.93820      106.307 
6.06044e-05      2.06074      114.513 
8.68741e-05      5.31239      121.491 
0.000168943     0.931933      86.3086 
6.20221e-05      2.80356      107.756 
1.76272e-05      2.72955      120.370 
6.06923e-05      2.15108      37.3493 
0.000110727     0.912044      126.304 
5.31998e-05      2.34811      117.384 
3.52108e-05      2.12265      32.0054 
1.69706e-05      3.88572      132.497 
5.79172e-05      5.31686      123.959 
1.68462e-05      2.75008      120.481 
5.14953e-05      2.62243      95.5802 
0.000245647      1.05737     -121.661 
6.10493e-05     0.225499      86.1859 
1.10887e-05     0.458912     -78.6901 
2.21058e-05      4.80473      128.408 
1.61954e-05      1.50972     -27.8381 
2.68598e-05      2.34883      24.9285 
3.69277e-05      3.89680      132.348 
2.64467e-05      2.75772      120.750 
-5.11447e-05      3.36766      120.220 
6.13944e-05      5.25208      133.496 
8.84442e-05      3.56609      132.955 
8.67873e-05      4.79543      128.268 
5.54029e-05      5.84779      112.948 
4.12680e-05      5.09729      143.737 
5.27024e-06      2.95683      106.504 
1.54432e-05      1.35208     -17.4299 
0.000358876      2.47627      22.0592 
3.04139e-05      1.91025      43.0908 
-0.000285840      3.35471      120.349 
4.74235e-05      1.52300     -27.5746 
8.91169e-06     0.777978      109.134 
8.61230e-05      2.80817      108.048 
0.000264019      2.54669      39.5031 
3.43666e-05      3.89587      132.660 
3.35979e-05      2.77828      120.858 
8.09740e-05      1.33331     -17.0079 
6.56622e-05      5.10939      143.837 
4.71134e-05      1.89932      43.4000 
1.88898e-05      1.59325      131.947 
0.000178136      4.31575      125.237 
1.37478e-05      2.28104      99.4623 
0.000101003      5.26241      133.614 
4.94986e-05      5.32525      124.093 
7.80991e-05      3.90692      132.510 
4.81084e-05      5.03003      110.056 
0.000319576      1.12500      16.2602 
5.84197e-05      5.30457      121.353 
0.000210229      5.39742      141.092 
0.000144109     0.663061      142.352 
0.000109986      2.82709      108.243 
4.00420e-05     0.933019      85.3894 
8.67927e-05     0.924175      125.754 
0.000103425      5.86160      112.891 
4.66266e-05      2.78601      121.122 
8.86963e-06      2.97549      106.699 
3.05696e-05     0.148492      45.0000 
5.50322e-05      5.31476      133.971 
3.74588e-05     0.679154      83.6598 
-0.000278102      4.43295      110.397 
5.16198e-05      1.88845      43.7127 
1.28634e-05     0.465725     -75.0686 
8.82608e-06      1.13535      43.3940 
0.000311824      1.58213      132.310 
-0.000413281     0.740490     -6.98106 
4.15522e-05      3.62969      132.990 
8.55094e-06      2.13538      31.7921 
1.23882e-05      1.80112      102.995 
6.32495e-05      2.13512      131.868 
0.000103047      5.12151      143.936 
2.85065e-05     0.773191      108.083 
1.23035e-05      2.02606      27.3239 
4.30092e-06      1.64221      16.4486 
6.36740e-05      1.12430      45.0000 
1.27589e-05      4.77709      112.135 
4.98461e-05      4.78615      128.127 
8.34274e-06      5.35685      134.206 
-0.000279708      4.52486      130.024 
4.25220e-06      1.34332     -23.7026 
8.34876e-06    0.0150000      180.000 
4.86863e-05     0.947971      85.4622 
5.92742e-05      1.53631     -27.3156 
0.000115686      2.63736      95.5485 
7.07974e-05      4.77146      111.969 
3.87790e-05     0.159452      41.1859 
5.96838e-05      5.33368      124.226 
4.28591e-05      1.87764      44.0290 
0.000193057      2.83182      108.531 
1.52768e-05      1.64823      103.151 
8.64080e-05      5.45689      130.653 
5.43235e-05      4.77691      127.985 
4.58193e-05      2.14516      132.166 
0.000216874     0.525000     -90.0000 
0.000144398      5.85365      113.083 
1.84498e-05     0.469814     -73.3008 
-3.00622e-05      5.18629      115.527 
1.47117e-05      2.27862      99.0903 
5.96358e-05      3.90605      132.821 
4.26692e-05      2.80660      121.226 
4.60493e-05      2.18702      36.6341 
-0.000160961      1.05321     -100.670 
4.01215e-05     0.949276      84.5597 
2.10886e-05      3.65089      133.002 
-0.000362447      1.47718      32.5604 
5.97767e-05      2.55828      39.2894 
5.75000e-05      4.76769      127.843 
2.71394e-05      3.05960      108.879 
2.77406e-05     0.695845      82.5686 
7.24833e-05      4.76587      111.801 
4.51305e-05      1.86688      44.3489 
3.05898e-05      1.02396      31.8274 
6.89650e-05      1.60920      16.2388 
3.27293e-05     0.768960      110.556 
-0.000165904      5.17985      115.378 
0.000143510     0.171026      37.8750 
0.000116220      1.34206      25.1330 
1.32435e-05      2.06701      114.891 
5.68501e-05      5.29678      121.214 
2.36036e-05      3.97825      122.372 
8.32222e-05      1.63362      103.271 
-0.000273136      3.36013      119.999 
4.50916e-05     0.965725      83.7581 
2.36383e-05      2.04446      93.7861 
9.50157e-05      4.75850      127.701 
6.59770e-06     0.460136     -70.9744 
-0.000119928      2.49438      47.1932 
2.78025e-05      1.40015     -4.91657 
-0.000300116      1.86054      91.3859 
1.54185e-05      5.36732      134.321 
