! Center RA: 12 21 31.69052,  Dec: +28 13 58.50019 (2000.0)
! Established model.
! Flux (Jy) Radius (mas)  Theta (deg)  Major FWHM (mas)  Axial ratio   Phi (deg) T \
! Freq (Hz)     SpecIndex
  0.114216      0.00000      0.00000 
 0.0147313    0.0286526     -45.0000 
0.00328327    0.0202604     -90.0000 
0.00171030    0.0828082      104.162 
0.00281694     0.101837      101.476 
0.00326635     0.120062      90.0000 
0.000695837     0.201375      84.2257 
0.00467445     0.240124      90.0000 
0.00385420    0.0446338     -63.0042 
9.21959e-05     0.259634      90.0000 
0.00184680     0.392593      104.727 
0.00326759    0.0720098     -56.4755 
0.000369116     0.141777      81.7841 
0.00145704     0.412220      104.011 
0.000283695     0.121759      80.4216 
0.000227759     0.260423      94.4620 
0.000159144     0.657660      109.531 
0.000497926     0.170734      110.586 
7.09550e-05     0.297155      109.625 
0.000656832     0.316312      108.392 
0.000783076     0.480248      90.0000 
0.000562139     0.152624      113.162 
0.00130051     0.480675      92.4157 
0.00170959     0.334882      107.339 
0.000673886     0.145849      105.824 
0.000303339     0.683639      110.563 
0.000591847     0.100252     -53.2159 
0.000189077     0.709549      111.464 
0.000803010     0.126477      108.327 
0.000595266     0.354273      106.362 
0.000223135     0.735213      112.377 
0.000446693     0.761740      113.206 
0.00104101     0.141141     -45.0000 
0.000345069     0.128090     -51.1829 
0.000452628     0.788112      113.929 
0.000496691      1.03869      105.633 
0.000133800     0.461573      107.699 
0.000130978     0.480675      87.5843 
3.12955e-05     0.480914      106.965 
3.11656e-05     0.651397      107.913 
0.000147796     0.481892      85.2660 
0.000231780     0.805984      113.367 
0.000547533      1.06303      106.401 
0.000237795     0.467874      109.975 
0.000282249     0.626742      106.699 
0.000453728     0.121759      99.5784 
0.000160345     0.862036      93.9932 
0.000155205     0.483985      82.8750 
0.00141147     0.169793     -45.0000 
0.000174067     0.798447      112.081 
0.000459507    0.0446338     -153.004 
0.000477638     0.475177      112.272 
0.000405761     0.841826      94.0893 
4.70636e-05     0.486913      80.5086 
0.000230656     0.817257      111.547 
0.000421206     0.475398      75.3715 
0.000139070     0.199903      126.913 
0.000419865      1.06870      107.404 
0.000449576      6.17429      118.222 
0.000445010      4.01027      109.523 
0.000818566     0.938962     -153.414 
0.000108144     0.709570      139.589 
0.000446139      4.27970      102.413 
7.34029e-05     0.810035      110.214 
7.35795e-05      3.18323     -177.473 
-0.00120248      1.95373      169.376 
0.000789579      4.04762      121.259 
0.000227128      5.58421      92.2565 
0.000414946      4.13283      117.686 
0.00104931      3.16299     -177.457 
0.000190169      4.05778      121.494 
0.000131277     0.803259      108.858 
3.47211e-05      2.39435      96.2252 
4.95667e-05      4.07507      121.346 
0.000124995     0.212689      131.281 
0.000679615      2.37215      95.8098 
6.59281e-05      1.07320      116.583 
0.000768251      7.26718      104.990 
0.000255691      2.11361      147.365 
0.000296631      5.58504      92.4641 
0.000119307      3.20190     -177.851 
6.22841e-05     0.621223      104.909 
0.000357661      2.34361      164.664 
3.10572e-05     0.724535      140.590 
0.000261624      6.16868      111.493 
5.99078e-05      4.03590      109.688 
0.000157062      1.08207      117.507 
0.000147967      6.64167      112.857 
0.000721069      1.62598      148.070 
0.000495100      1.88361     -138.020 
9.95109e-05     0.797167      107.531 
5.74091e-05     0.860863      92.6479 
0.000567407      2.40879      144.458 
5.76023e-05     0.616492      103.157 
0.000183160     0.280627     -175.860 
1.42763e-05     0.480914      73.0353 
0.000138611      4.00354      109.250 
0.000535897     0.878924      41.2964 
0.000330046      6.18231      117.977 
0.000270027      1.08805      107.085 
0.000216392      6.63412      112.702 
0.000155440     0.226037      135.000 
0.000237509     0.631341      100.963 
0.000522180      4.02937      109.427 
0.000170411      6.40595      115.127 
2.70247e-05      2.46746      163.025 
1.34754e-05     0.753057      140.377 
5.16629e-05     0.850886      60.4055 
0.000210357      2.48685      163.162 
0.000418628      2.52114      138.209 
0.000257333     0.840624      92.7117 
0.000525994      1.73323      161.157 
0.000432411     0.860688      59.2761 
0.000137414      6.16129      111.318 
0.000555242     0.921556     -152.872 
0.000353579      5.60615      92.6544 
0.000111811     0.449587      110.825 
0.000388052      2.09657      147.066 
0.000139910      1.89722     -137.565 
3.68053e-05     0.791300      106.132 
9.42382e-05      1.06480      117.992 
0.000288747      2.32408      164.532 
5.66175e-05      2.50893      171.296 
0.000502194      1.69640     -142.187 
2.31152e-05      6.15395      111.142 
9.79443e-05      7.24834      105.030 
3.38796e-05      6.20972      111.940 
0.000171766      6.62633      112.540 
9.69979e-05     0.800182      103.007 
0.000359580      6.32475      121.023 
2.23528e-05      6.14694      110.973 
0.000167282      2.49978      163.736 
0.000382815     0.627803      99.1471 
0.000100058      6.07829      120.449 
8.15411e-05      6.21703      112.107 
0.000229945      6.15178      110.559 
0.000302763      1.10744      106.777 
0.000144870      4.14193      117.925 
1.06128e-05      2.53208      170.912 
4.10017e-05      1.09157      118.450 
5.08488e-05      6.41426      115.285 
0.000181096      2.55134      170.981 
0.000117739      2.35001      95.3683 
9.86856e-05      3.14350     -177.442 
0.000259215     0.300838     -176.138 
0.000135880      4.35126      119.155 
0.000235586      7.18530      105.004 
5.70467e-05     0.240790      138.411 
0.000192352      1.86751     -133.274 
0.000172763      6.61859      112.378 
0.000199717      1.11345      107.776 
0.000591317      1.75171      161.363 
4.73137e-05     0.895107     -150.577 
0.000382334      4.26507      102.735 
0.000122745      1.07446      118.946 
9.98377e-05    0.0562440     -135.000 
0.000137571      6.38829      115.201 
-0.000787305      1.14249     -147.145 
0.000187392      2.51924      163.865 
9.47056e-06      3.12326     -177.425 
3.69481e-05      3.10302     -177.408 
0.000115693      6.22469      112.280 
0.000374435      2.35200      95.8597 
9.17227e-06      2.08475     -139.291 
9.62082e-05     0.878166     -149.951 
0.000108775      2.09958     -139.639 
0.000111436      3.08353     -177.392 
0.000207323     0.184676     -40.5508 
-0.000464844      3.98157      112.447 
0.000162666      3.22215     -177.865 
0.000219844      6.08820      120.608 
0.000116279      5.72181      95.0107 
0.000229140     0.893674      40.4708 
4.70255e-05      1.83163      148.400 
0.000193534      7.28555      104.305 
7.36622e-05      7.28175      104.801 
0.000132941     0.860688     -149.276 
0.000125171      6.61118      112.222 
0.000274693     0.983930      26.5455 
0.000148096      6.02437      92.0915 
0.000149863      3.06329     -177.374 
8.48499e-05     0.795867      101.585 
0.000235464      6.14470      110.382 
-0.000165343      6.65964      108.384 
9.20117e-05     0.839927      91.3822 
-0.000148050      4.17295      99.1049 
8.84025e-05      1.87011     -138.481 
-0.000116564      4.40947      98.6127 
0.000122693      2.31895      164.997 
4.40886e-05      2.12814     -139.576 
5.60527e-05      4.15078      117.556 
0.000123888      1.60882      147.689 
0.000155769      2.53870      163.992 
-6.88996e-05      5.81433      115.682 
7.66241e-05      6.39663      115.360 
4.88135e-05      5.58591      92.6641 
4.32074e-05      1.88231     -132.851 
0.000174817      6.60355      112.059 
0.000100827     0.843976     -148.599 
9.26360e-05      6.23239      112.452 
-7.59076e-05      5.83260      115.596 
4.89452e-05     0.952783     -140.946 
5.99695e-05      5.81091      93.5537 
0.000111241      2.14360     -139.927 
7.02132e-06     0.443026      108.466 
-0.000129978      6.56108      114.299 
-0.000154549      4.48683      103.669 
0.000154037      3.06425     -177.010 
-0.000160722      4.17609      99.3692 
4.53591e-05      1.86859     -132.396 
1.33019e-05      1.84233      147.864 
0.000140666     0.965195     -140.046 
-7.16308e-05      5.84477      114.459 
5.71415e-05      2.29184      99.5363 
1.96274e-05      1.08441      119.883 
6.35108e-05     0.725357      155.556 
6.33057e-05      6.46295      110.846 
3.82428e-05     0.860182      91.3497 
3.13661e-05      2.40380      143.799 
-2.52917e-05      6.76169      116.716 
-8.76266e-05      7.36470      102.869 
3.12367e-05      2.53628      138.514 
2.51860e-05      6.40533      115.523 
-6.81696e-05      2.97979      180.000 
1.86734e-05      4.14145      117.308 
3.08518e-05      1.06689      120.425 
3.69541e-05      4.31078      100.420 
-4.28744e-05      1.13161      43.5491 
-3.06968e-05      5.86254      114.380 
1.83245e-05      4.20885      121.193 
2.45427e-05      2.82022      168.131 
6.19551e-06      6.12571      110.448 
-1.23366e-05     0.639305      69.8847 
1.22356e-05      1.61974      147.083 
-3.03861e-05     0.620320      69.2412 
6.12838e-06      2.46009      162.002 
1.21250e-05      5.82992      93.3426 
1.21310e-05      6.41409      115.687 
6.07820e-06      5.88126      91.1697 
6.05788e-06      4.32724      100.117 
0.000888042      10.2658      6.48865 
0.000665248      11.6798      120.343 
-0.000538452      10.1980      48.1795 
-0.000451753      10.2037     -132.857 
-0.000526214      2.73995     0.831680 
0.000734449      2.62618      20.5062 
-0.000248875      4.23789      170.491 
0.000769578      11.5977      30.2364 
-0.000605501      10.8438     -117.936 
-0.000428815      12.3252     -42.9622 
0.000432622      8.30883      38.7455 
0.000638414      12.3610     -55.2815 
0.000535486      3.88502     -118.936 
0.000483565      3.44051     -150.007 
0.000273886      9.24871      116.731 
-0.000270200      9.53043     -54.3076 
0.000625212      9.35800     -80.9017 
-0.000419769      3.98203      96.0576 
-0.000373849      4.41549     -109.580 
-0.000419060      10.1073      56.6238 
-0.000265918      9.08631      146.309 
-0.000216391      4.25787      170.536 
-0.000416232      5.82336     -152.378 
-5.73277e-05      10.3248      134.058 
0.000313855      7.96981     -117.335 
0.000214500      8.63860     -118.936 
-0.000416280      10.4954      131.835 
-5.62834e-05      6.48496     -63.0406 
-0.000161365      10.1900     -132.774 
-5.54791e-05      10.3249      134.214 
-0.000407834      7.50122     -162.145 
0.000256590      8.86093    -0.907378 
0.000262414      9.52539      125.859 
-0.000154747      6.50236     -63.1185 
-0.000152862      9.14149      91.1288 
-0.000443068      10.3104      134.292 
-0.000156143      13.8496     -43.5357 
0.000201289      8.05217      130.972 
0.000252310      11.6973      120.292 
0.000262476      6.35855      157.630 
-0.000248058      9.65995      44.2447 
0.000103914      7.88401      101.708 
-0.000149061      3.00057     -42.8414 
-0.000101838      9.96226     -131.339 
-0.000197261      10.1964      48.0187 
0.000197838      10.2456      161.564 
-0.000246660      10.8189      24.8107 
0.000165836      7.88714     -2.47014 
-0.000196699      10.9564     -158.586 
-0.000245306      10.2450      10.9141 
5.15108e-05      8.87984      161.075 
0.000244905      11.0108     -25.9591 
5.12611e-05      4.74605      156.134 
0.000147940      10.9939     -117.403 
-9.65838e-05      5.40029      150.489 
0.000194364      8.41661      67.2139 
0.000146286      11.7799      131.077 
-0.000145772      9.86219      106.011 
-0.000296535      8.52085      141.195 
-9.62926e-05      10.0892      173.281 
0.000191499      7.90797      101.822 
-9.73374e-05      8.88766      32.6905 
9.68767e-05      8.86138      161.034 
-0.000239484      8.75686     -174.759 
-9.61617e-05      8.54577      139.937 
-9.73622e-05      9.96241     -69.3086 
0.000191148      9.54182      125.788 
9.57897e-05      10.7872      117.137 
-0.000232100      12.1424     -52.0912 
-9.56006e-05      13.8349     -43.5935 
0.000141944      7.45194      86.7674 
0.000141087      12.8756      39.3263 
9.48142e-05      4.14332     -114.834 
9.36765e-05      11.8875      123.958 
-4.80577e-05      7.46809      177.391 
-9.35921e-05      7.03967      146.945 
9.31690e-05      5.65799     -56.5333 
9.33875e-05      10.6872     -106.638 
-9.27569e-05      12.2088     -33.5084 
4.69897e-05      7.96200      141.832 
-4.70054e-05      7.35024      83.2813 
4.69041e-05      4.23103     -27.2876 
-4.68600e-05      9.94889     -131.251 
4.68246e-05      8.54282     -44.0533 
4.67042e-05      9.47504      112.721 
-4.66537e-05      4.42232     -109.828 
-4.65772e-05      10.2953      39.0094 
4.64171e-05      8.26696     -113.528 
-4.63374e-05      9.94416     -69.2689 
-4.61643e-05      5.32067     -109.999 
-4.61091e-05      1.91266     -6.60084 
-0.000156334      10.8021      161.432 
4.58649e-05      5.66014     -112.216 
-4.57794e-05      9.73436     -41.4186 
4.56258e-05      7.96087     -117.210 
0.000415768      6.26409     -120.088 
-0.000954734      10.0159     -81.2695 
0.000853185      9.10731      108.435 
-0.000464527      3.73096      154.940 
-0.000432518      9.85648     -116.774 
0.000207727      12.0699     -39.1488 
-0.000434826      3.98802     -45.0000 
-0.000323614      6.07460      69.7720 
0.000235807      7.46603      165.257 
-0.000101074      11.6520     -48.8984 
0.000248607      5.27566     -43.9223 
-0.000177345      3.97372     -45.2066 
0.000161554      6.28163     -119.995 
-0.000185106      12.2355     -139.908 
0.000138907      5.05821      172.961 
-9.74741e-05      12.0013     -52.1750 
-0.000254883      10.2474     -171.697 
-0.000180999      5.79950     -155.557 
0.000182526      8.01331      60.8787 
-0.000472605      9.71935      78.9659 
-9.29814e-05      10.4738      161.287 
-0.000447761      11.6653     -48.8234 
9.24147e-05      6.29140     -120.149 
-0.000280977      11.4007     -141.480 
0.000135548      7.83644     -37.2210 
0.000321488      12.0542     -39.2096 
-4.65062e-05      12.0297     -52.1579 
0.000361315      7.63812     -79.8945 
-0.000177113      13.8698      132.781 
-0.000410742      10.4546      161.252 
-0.000126770      7.30839      83.4025 
0.000390838      9.89447      25.3718 
-8.75859e-05      9.30921     -46.5677 
0.000108324      8.11619      34.3571 
-4.44401e-05      8.85209     -53.5420 
-0.000796123      12.0173     -52.2342 
8.55744e-05      6.59742     -122.246 
0.000290554      7.90738     -2.46381 
0.000348207      9.10552     -75.1106 
-0.000449620      10.3479      99.0074 
0.000204253      10.7960      116.992 
0.000245369      9.89680     -61.7775 
-0.000160684      13.4020      130.702 
-0.000159026      5.80791     -155.375 
-0.000180935      9.14579     -47.6602 
-0.000121986      6.62672     -177.404 
0.000122611      6.11017     -140.576 
-4.26181e-05      5.08858     -129.255 
-0.000152991      3.96944      96.9490 
-0.000104485      6.11643      169.832 
0.000260805      10.4380     -63.4847 
-0.000303136      12.1888      132.405 
-0.000145137      9.84823     -116.930 
0.000188817      7.85198     -37.1349 
0.000150019      11.2965      153.615 
-7.90198e-05      8.86370     -53.4405 
0.000186949      9.29497      106.756 
-0.000252689      12.1299     -52.1667 
-0.000290396      9.32315     -46.4773 
-0.000374586      13.8417      132.775 
0.000268266      9.49337     -151.977 
0.000187494      3.45973      79.3384 
-0.000304085      10.4506      140.124 
0.000152433      7.90280      61.4273 
-0.000214712      5.61262     -36.0150 
4.03549e-05      3.86004      90.3007 
0.000278296      9.85752     -45.5767 
-4.02393e-05      6.13923      169.678 
-0.000152650      7.12372     -21.2321 
-0.000114725      7.42927     -67.0218 
0.000147147      8.13230      34.2795 
7.45865e-05      11.4484      153.435 
-7.50890e-05      3.72242      155.222 
0.000112739      9.29231     -158.403 
-7.40376e-05      5.07578     -129.078 
-0.000157686      3.26805      68.4600 
-3.89688e-05      10.4656      140.192 
0.000262376      7.64157     -79.7505 
0.000147093      10.0688     -60.2270 
7.58027e-05      6.60825     -122.394 
0.000289973      9.95627      72.5852 
-7.56697e-05      12.2534     -140.098 
-0.000147922      9.36206      88.8978 
-3.84131e-05      9.57477      21.3144 
-0.000270761      11.2532      32.2212 
3.83410e-05      8.48870     -62.6512 
7.29885e-05      8.34495      44.0272 
-0.000227477      9.34931     -131.704 
3.80163e-05      7.48490      165.295 
7.41651e-05      7.26099     -179.053 
3.78983e-05      10.6022     -164.575 
0.000211190      9.53294     -156.769 
-0.000167179      10.1962      45.2385 
0.000198157      9.66974     -92.6064 
-0.000341236      5.41155      48.2939 
-0.000132879      6.05559      69.7057 
-0.000141526      11.6500     -48.7578 
3.71822e-05      10.0496      172.336 
-0.000107055      4.22783      36.9268 
-3.69977e-05      6.12003      169.645 
-0.000134043      7.28604      83.5366 
-0.000102777      7.26216      75.1582 
-7.21840e-05      8.23065     -129.184 
0.000104640      6.09732     -140.723 
6.96221e-05      3.86020      90.5903 
-0.000286757      6.60648     -177.396 
-0.000159552      8.97525      33.0895 
-0.000180212      6.45770     -85.7351 
-0.000218350      9.59365      21.2705 
7.04968e-05      10.8052      117.088 
0.000169800      10.0269      172.436 
6.98298e-05      8.43066     -30.8247 
0.000160797      8.48006     -62.4667 
-0.000138152      8.78982     -113.181 
6.96240e-05      13.7605      45.4131 
0.000156170      6.63581     -122.443 
-0.000127837      10.0129     -81.3841 
0.000385356      10.5968     -164.680 
6.86180e-05      3.07107      4.84967 
-0.000135171      13.1480      139.381 
-0.000164967      10.1400      56.3440 
0.000102959      9.47872      104.417 
9.95523e-05      8.43678     -101.071 
-3.51145e-05      7.08819     -20.4801 
-0.000133566      12.2560     -140.231 
0.000394433      9.91399     -61.8308 
0.000243549      10.5420      15.0630 
6.56429e-05      9.27348     -158.357 
0.000223479      9.48225      115.484 
0.000218887      8.44106     -30.9428 
0.000158497      8.69528     -62.3138 
3.44452e-05      6.87860     -124.340 
0.000299464      9.07307      111.870 
9.73467e-05      8.69909     -176.177 
-0.000153318      9.38120      89.0238 
-3.40131e-05      13.7420      132.818 
-0.000324527      7.14926     -21.3268 
3.39760e-05      8.80015    -0.522766 
3.38739e-05      8.88621      161.360 
-0.000118298      13.2156     -40.0272 
-3.37641e-05      8.21787     -129.074 
-3.36183e-05      13.2687     -136.343 
9.64833e-05      3.43982      79.2759 
-0.000123460      11.4203     -48.5481 
0.000273335      5.60972     -105.724 
0.000256221      9.29951     -158.291 
3.34832e-05      7.22159     -178.887 
-0.000427550      9.56879      33.4882 
-6.48419e-05      10.2104      45.1578 
-9.51485e-05      9.63130      44.2424 
0.000715845      13.7468      45.4711 
0.000183969      4.83633     -58.8701 
0.000122765      7.56595      11.2787 
3.31467e-05      10.5078      118.664 
9.52890e-05      6.88962     -124.474 
-0.000153171      7.10647     -20.4250 
-0.000182203      9.08511      7.84232 
0.000171389      3.73924      63.9800 
-0.000299286      12.2025      132.475 
3.27282e-05      7.39395      18.7788 
0.000178286      7.30665      49.5525 
0.000238395      9.45407      104.329 
0.000147968      4.31234     -40.4834 
-3.24985e-05      8.78186     -113.060 
-0.000204645      10.9397      47.1487 
6.12254e-05      10.4652      26.5651 
-0.000325765      10.1071      94.1981 
-0.000372689      6.48479     -177.878 
-6.17285e-05      13.2548     -136.406 
