! Center RA: 12 21 31.69052,  Dec: +28 13 58.50011 (2000.0)
! Established model.
! Flux (Jy) Radius (mas)  Theta (deg)  Major FWHM (mas)  Axial ratio   Phi (deg) T \
! Freq (Hz)     SpecIndex
 0.0581971    0.0202604      180.000 
 0.0502918      0.00000      0.00000 
0.00620565    0.0202604     -90.0000 
 0.0308503    0.0286526     -135.000 
0.00431203    0.0633577      71.3505 
 0.0192343    0.0446338     -116.996 
 0.0138516    0.0828082      75.8378 
0.00364939     0.325253      100.636 
0.00792356     0.302778      97.5477 
 0.0165320     0.101837      78.5245 
0.00284889     0.417588      106.709 
0.00531846     0.443026      108.466 
0.000891189     0.345185      100.015 
0.000163349     0.392593      104.727 
 0.0122397     0.282706      98.0871 
0.00694595     0.455823      105.272 
0.00452179     0.121759      80.4216 
0.000392122     0.461573      107.699 
0.000815151     0.437032      105.945 
0.00337214     0.475398      104.628 
0.00136445     0.260423      94.4620 
0.00235494     0.987971      111.381 
0.00160605     0.961787      110.697 
0.000870675     0.980766      110.279 
0.000176586     0.480914      106.965 
0.000347018     0.411965      112.829 
0.00219613     0.140322      90.0000 
0.00100362     0.495028      104.036 
0.000949848     0.394056      113.929 
0.000161796     0.969133      111.818 
0.000160383      1.00686      110.961 
0.00120548     0.513977      103.509 
0.000315198     0.951048      112.255 
0.000463209      1.02511      110.571 
0.00173888     0.262662      98.7088 
0.000450745     0.932329      112.726 
0.000296972     0.924690      111.568 
0.000699277     0.509625      101.293 
0.00113366      1.04410      110.180 
0.00475994    0.0397705     -90.0000 
0.000420394     0.420241      115.375 
0.00135380     0.905879      112.039 
0.000808723     0.402700      116.565 
0.00102998      1.06991      110.787 
0.00273742     0.529508      100.864 
0.000601483     0.240977      94.8229 
0.00129624     0.533698      103.001 
0.00176829     0.913675      113.217 
0.00188604     0.429314      117.819 
0.000996044     0.887825      112.512 
0.00105460      1.10296      112.395 
0.000327144      1.03728      109.130 
0.000536922      1.13722      113.859 
0.000841346     0.733822      107.434 
0.000765946     0.714519      107.921 
0.00195827      1.16399      114.368 
0.00101923      1.00559      107.367 
0.000948656     0.921540      114.332 
0.00175462    0.0633577     -108.650 
0.000935334     0.553458      102.529 
0.000169798     0.320306      86.3734 
0.000166351     0.412159      119.085 
0.000473409     0.243395      99.4042 
0.00112292    0.0896014      63.6495 
0.000315553     0.753177      106.973 
8.15021e-05     0.342244      83.3269 
0.000307491     0.999726      106.258 
0.000227984     0.438758      120.073 
0.000782533     0.362375      83.6991 
0.000748413      1.18985      114.836 
0.000513954     0.975424      105.437 
0.000375104     0.930071      115.469 
0.000151476     0.394577      120.515 
0.000517224     0.695981      108.415 
0.000189878     0.797167      107.531 
0.000276793     0.377263      122.078 
0.000494669     0.771858      106.550 
7.07083e-05     0.938962      116.586 
0.000895175      1.19850      115.715 
0.000335575     0.965848      117.083 
0.000130688     0.223431      100.253 
6.77313e-05     0.456404      118.798 
6.75684e-05     0.931206      104.943 
0.000601206     0.350038      120.964 
0.000131036     0.815792      107.118 
0.000311785      1.02494      107.029 
0.000239637     0.181229      96.4188 
6.54794e-05     0.950796      104.628 
0.000304690     0.474259      117.619 
0.00128913    0.0600310     -90.0000 
0.000512247     0.926189      103.732 
0.000473225     0.975239      118.143 
6.20726e-05     0.907248      104.025 
0.000290962     0.381773      84.0205 
0.000879304      1.26682      111.291 
0.000344369     0.791300      106.132 
6.14532e-05      1.11054      113.326 
0.000290797     0.549419      100.466 
0.000426878    0.0720098      33.5245 
5.89739e-05      1.08495      112.788 
0.000163323      1.09265      113.731 
0.000269833     0.365154      80.5377 
5.59409e-05     0.994244      105.138 
0.000406730     0.483985      119.745 
0.000199331      1.11872      114.279 
0.000160891     0.546212      98.4529 
0.000107918      1.20743      116.581 
0.000152526      1.01919      105.940 
0.000776973     0.360880      123.723 
0.000202523     0.984957      119.182 
0.000369039     0.651397      107.913 
5.20428e-05      1.23431      116.970 
0.000199118     0.945882      103.441 
0.000200141     0.786103      104.766 
0.000150859     0.543603      96.3402 
0.000101247      1.00269      118.617 
0.000241787      1.24363      117.802 
4.98290e-05     0.306099      78.6901 
9.60271e-05      1.10096      114.696 
0.000315739     0.384412      81.0157 
4.83896e-05     0.286260      77.8948 
0.000187090     0.541740      94.2100 
4.79752e-05    0.0848966      45.0000 
4.78062e-05     0.788842      98.7544 
0.000674384      1.28502      110.975 
0.000759417    0.0828082     -104.162 
0.000395692      1.01218      119.587 
0.000349873     0.921752      102.554 
4.68060e-05     0.786014      97.2946 
4.61942e-05     0.764371      96.0296 
0.000175935     0.291183      73.9938 
4.58283e-05      1.04433      106.703 
0.000263207      1.25320      118.621 
0.000216913     0.762509      94.5155 
0.000252716     0.501018      118.638 
0.000252190     0.540658      92.1476 
0.000247046      1.03869      105.633 
0.000199791      1.12720      115.217 
0.000121258     0.835434      111.056 
0.000434782      1.26267      119.399 
0.000274381     0.761182      92.9950 
0.000554001    0.0828082      14.1622 
0.000192623     0.297155      70.3754 
0.000192801      1.02234      120.574 
0.000151544     0.540279      90.0000 
0.000114961     0.941538      102.286 
7.68841e-05     0.404436      81.4640 
7.60721e-05     0.510656      120.559 
0.000304161     0.372066      126.223 
0.000451233     0.842640      112.294 
9.84779e-05     0.632861      108.456 
3.71388e-05      1.06303      106.401 
0.000211796      1.27273      120.193 
3.67750e-05     0.760412      91.5268 
0.000731698     0.961344      102.029 
0.000379385     0.449253      122.310 
0.000140501    0.0633577      18.6495 
0.000223275      1.15869      111.264 
0.000365466     0.180093      90.0000 
0.000266442    0.0600310      0.00000 
0.000733998     0.476838      122.990 
4.47405e-05     0.718124      102.860 
0.000130890      1.15578      113.453 
0.000172359     0.740950      93.0768 
0.000550497      1.06689      120.425 
0.000323617     0.200353      90.0000 
4.28464e-05     0.640096      104.460 
0.000157088     0.850533      113.557 
0.000405585     0.441522      84.8320 
0.000387739    0.0633577     -18.6495 
0.000193802     0.621223      104.909 
0.000272943     0.740159      91.5686 
8.15170e-05      1.15150      110.324 
0.000155569      1.17217      115.236 
3.89538e-05      1.16375      109.042 
0.000149950      1.27791      110.127 
3.78187e-05     0.824622      112.808 
0.000384577     0.937436      101.076 
7.19749e-05      1.13205      107.474 
7.23886e-05      1.18095      116.125 
0.000137948     0.540658      87.8524 
7.15907e-05     0.459977      124.364 
0.000303553     0.739882      90.0000 
0.000106161    0.0562440     -45.0000 
0.000272419      1.31124      111.485 
0.000166497     0.832685      114.094 
0.000102005      1.19001      117.001 
0.000496675    0.0896014      26.3505 
0.000229340    0.0633577     -71.3505 
0.000630927     0.181229      83.5812 
0.000368875      1.05965      121.889 
6.62260e-05      1.10196      105.806 
3.34475e-05     0.626742      106.699 
0.000151854     0.561200      85.9362 
0.000202819      1.12613      106.491 
0.000151598    0.0720098     -56.4755 
0.000367475      1.33659      111.957 
0.000458398     0.504899      123.666 
8.76604e-05     0.201375      84.2257 
0.000228701     0.760412      88.4732 
0.000169826     0.841160      115.353 
0.000191135     0.424483      81.8699 
0.000544760    0.0802914     -90.0000 
0.000356872     0.384386      128.660 
0.000298799     0.562998      83.8791 
8.01195e-05     0.627787      112.488 
5.23335e-05      1.16280      116.565 
2.75229e-05     0.957327      100.843 
0.000300379      1.30046      120.516 
0.000354666      1.07049      122.810 
7.63345e-05     0.933756      99.8559 
0.000192711     0.286050      65.1829 
3.16916e-05     0.740159      88.4314 
0.000122181      1.12075      105.534 
0.000629575     0.761182      87.0050 
2.55855e-05     0.867194      115.966 
2.49870e-05     0.635505      114.114 
9.49333e-05     0.849697      116.542 
0.000163031      1.36300      112.428 
0.000333870      2.19570      106.949 
2.43002e-05     0.617068      114.882 
0.000229288     0.101837      11.4755 
0.000213846     0.953723      99.6476 
0.000112915     0.625863      116.565 
0.000100032      1.17200      117.451 
0.000519800     0.107434      21.7271 
2.26614e-05      1.25851      107.560 
2.24335e-05      1.35540      111.636 
0.000395584      1.31047      121.251 
6.39080e-05      1.11549      104.532 
2.19491e-05     0.427819      79.1828 
0.000122781     0.858942      117.752 
9.82682e-05      1.25276      106.709 
7.98109e-05     0.521249      122.478 
0.000122030     0.295127      61.6104 
0.000646182     0.565518      81.8376 
0.000319734      2.22031      107.302 
0.000138026     0.635182      118.200 
0.000208426      3.00633      115.203 
0.000118359      1.38175      112.108 
2.07880e-05     0.407936      78.6487 
0.000726447     0.101837     -101.476 
0.000187067      1.06543      124.294 
0.000147401      1.08715      102.760 
0.000456978     0.396866      130.860 
0.000205027     0.412220      75.9891 
0.000133457      2.99776      114.852 
8.88172e-05     0.322315      60.2717 
0.000253565      3.02400      115.045 
0.000102956     0.868561      118.934 
0.000255320     0.930615      98.6724 
0.000104526      1.39984      111.807 
0.000268872     0.516406      125.538 
0.000117134     0.644631      119.728 
0.000184297      1.10299      85.8255 
0.000100873      2.18988      106.442 
1.99362e-05     0.304887      58.3833 
0.000431341      1.07654      125.152 
0.000105786      1.08285      101.715 
0.000152489      1.41867      111.503 
0.000133990      1.10459      84.8161 
0.000181462     0.332828      57.2415 
1.60316e-05      2.22619      107.781 
7.56333e-05     0.672314      120.372 
1.57105e-05      2.23246      108.277 
1.55537e-05      2.23890      108.769 
6.09541e-05      2.81088      114.376 
3.05288e-05     0.878166      120.049 
0.000381928      1.32109      122.002 
3.05817e-05      2.18444      105.951 
5.73438e-05      1.24709      105.818 
1.52703e-05      2.25201      109.727 
3.02321e-05      3.05063      115.216 
4.05978e-05     0.532403      124.317 
2.97884e-05      2.25867      110.193 
7.21327e-05      2.17896      105.439 
0.000413554      2.41458      121.452 
0.000142709      2.80258      113.998 
2.90149e-05      3.07760      115.397 
0.000120273     0.860688      120.724 
2.88686e-05      2.26574      110.674 
5.50360e-05      2.27298      111.152 
5.48549e-05      3.09524      115.242 
0.000105209      1.43754      111.207 
8.05237e-05      2.68825      109.113 
7.95893e-05      3.09474      110.421 
9.26538e-05      2.17365      104.924 
3.93337e-05     0.682782      121.839 
8.98819e-05      3.43388      108.328 
0.000110448      2.25479      111.330 
0.000121998      1.11058      103.520 
7.26747e-05      3.12222      115.420 
0.000124467      2.76804      113.417 
0.000149466     0.121759      9.57842 
0.000181516      1.27573      99.0357 
0.000114905      3.08293      110.905 
2.50507e-05      2.56153      109.136 
0.000242956      1.43034      110.451 
7.08366e-05      2.68168      108.704 
0.000117384      2.14409      104.036 
0.000256114     0.417588      73.2909 
2.34653e-05      2.55607      110.143 
1.24125e-05      2.32121      108.587 
8.11379e-05      1.27271      98.1349 
0.000441944      3.45311      108.222 
0.000331756     0.654914      121.268 
0.000255994      3.30163      112.053 
0.000163146      3.28366      117.965 
0.000141396     0.871214      121.869 
0.000121044      2.33361      107.981 
1.17691e-05      2.56178      107.718 
0.000207281      2.30488      98.4810 
5.39331e-05      1.14028      105.262 
0.000229185     0.344213      54.4042 
0.000112382      1.29277      98.0078 
0.000148118      2.26196      111.791 
3.06267e-05      2.56286      110.552 
6.45626e-05      2.02851      102.520 
9.23383e-05      2.97939      115.016 
0.000239255     0.762509      85.4845 
2.13748e-05      2.67525      108.293 
0.000194337     0.527985      127.261 
5.81315e-05      2.55591      107.302 
6.37103e-05      1.39561      115.477 
1.04275e-05      1.12320      85.9007 
0.000164378      3.09022      111.256 
0.000156561      1.39514      117.309 
2.02732e-05      2.16871      104.426 
8.28465e-05      2.70088      108.566 
0.000305728     0.126477      18.3275 
0.000120499      1.12476      84.9094 
1.01270e-05      1.22833      106.066 
0.000322413      2.00873      102.645 
4.31956e-05      3.11358      115.083 
2.92707e-05     0.107434     -111.727 
0.000219216      3.29320      118.276 
0.000155369      2.77616      113.801 
0.000110568      2.16375      103.906 
5.39697e-05      1.41738      98.9237 
0.000113050     0.126477     -108.327 
0.000422076      1.07201      126.661 
0.000178834      1.30396      122.474 
0.000235131      2.30198      97.9822 
7.87976e-05     0.410407      133.000 
8.15988e-05      1.29574      98.8950 
2.57329e-05     0.134233     -116.565 
8.39841e-05      1.10618      102.537 
3.88660e-05      2.55183      111.132 
0.000186434      2.56864      106.741 
0.000124388      1.13512      104.275 
9.11216e-05     0.913801      100.073 
0.000114988      2.24316      111.983 
0.000361545     0.156126     -140.265 
0.000462937      3.15147      106.588 
1.61367e-05      1.43380      98.0326 
4.99655e-05     0.882079      122.987 
7.16528e-05      2.69450      108.157 
9.82427e-06      1.15406      117.915 
0.000167190      1.45121      97.1287 
0.000288154      2.38737      121.282 
0.000197028     0.540492      128.970 
0.000175789     0.585580      82.1191 
6.96769e-05      2.28266      98.0502 
2.86313e-05      3.49219      106.979 
5.15104e-05      3.12345      114.589 
7.42533e-05      2.15897      103.384 
7.11973e-06      2.32744      107.506 
0.000192044      1.14420      84.9961 
0.000102886     0.355922      51.8496 
0.000175048      2.78409      114.168 
0.000103734      3.50595      106.577 
3.55303e-05      2.54460      110.706 
0.000158829      3.32000      118.424 
9.55173e-05      3.32042      111.922 
1.82284e-05      2.32946      113.262 
0.000105861     0.395830      135.000 
6.96268e-05      2.35289      107.828 
0.000128107      2.17796      103.265 
4.61675e-05     0.892851      124.037 
3.82160e-05      2.25082      112.461 
0.000248221      1.31495      123.219 
0.000134988      1.13685      118.375 
0.000240949      2.98801      115.368 
6.89686e-05      1.42315      107.174 
4.74733e-05      2.68848      107.762 
0.000189648      2.06459      93.8972 
2.67757e-05      3.11539      114.262 
7.40414e-05      1.40411      116.195 
6.32136e-05     0.368782      49.3734 
5.02639e-06      2.33754      113.718 
6.73003e-05      2.23211      112.660 
0.000128194     0.553458      130.601 
9.36623e-06      2.53776      110.294 
0.000125388      3.45950      108.541 
0.000178623     0.638318      122.177 
0.000124748     0.950648      81.5117 
6.83169e-05      2.29935      97.5007 
0.000133566      3.32933      118.720 
5.22383e-05      1.15984      104.998 
5.88908e-05      2.35610      113.520 
3.19258e-05     0.917561      101.319 
9.65680e-05      1.44884      96.3336 
3.14208e-05      2.19768      103.144 
0.000148020     0.740950      86.9232 
5.51143e-05      3.51896      106.170 
5.03987e-05     0.904347      125.101 
4.18128e-06      2.51877      110.454 
2.43873e-05      2.51176      110.021 
1.14824e-05      3.07135      111.393 
4.23918e-05      3.32804      112.245 
5.60269e-05     0.381773      47.1506 
5.89358e-05     0.121759     -99.5784 
-0.000696836      2.70401      119.218 
1.80060e-05      2.31944      97.4354 
8.08823e-05      2.79244      114.547 
1.31222e-05      2.35894      108.279 
5.81344e-05      1.40455      118.044 
6.75916e-06      2.34211      97.8445 
3.63567e-05      1.44252      106.936 
3.43601e-06      1.05225      98.7368 
1.31743e-05      2.33953      97.3712 
9.58235e-06      2.68237      107.350 
1.87078e-05      2.21310      102.533 
3.90025e-05      2.01326      103.208 
5.30646e-05      2.42521      121.861 
0.000148085     0.381773      137.151 
1.49340e-05     0.204262      78.7726 
9.39601e-05      2.36144      97.7799 
2.50074e-05      2.21412      112.854 
3.16615e-06      3.06401      111.041 
3.16237e-06     0.315980      55.2532 
3.60377e-05      1.07906      100.700 
4.44474e-05      2.64998      114.047 
3.40861e-05     0.860287      107.566 
7.42505e-05      2.39795      121.696 
3.01536e-06     0.367178      45.0000 
1.93958e-05     0.381773      42.8494 
8.93087e-05      3.39594      120.032 
6.70209e-05      2.23215      102.424 
1.40213e-05      2.60746      106.484 
0.000125459     0.268467      63.4349 
5.30693e-05      2.36605      112.881 
9.79903e-05      2.80092      114.924 
6.78979e-05     0.847467      109.285 
4.14281e-05    0.0998015     -90.0000 
1.68712e-05     0.916147      126.138 
5.18062e-06      2.15454      102.879 
4.36406e-05      2.62618      106.364 
5.58459e-05      2.22207      113.336 
1.06419e-05      3.05680      110.686 
3.89533e-05      3.52761      105.458 
9.56167e-06      2.54996      106.867 
3.85978e-05     0.396866      40.8598 
2.43524e-06      2.50490      109.586 
5.23615e-05      2.65830      114.445 
9.11256e-05      1.06823      128.182 
8.31109e-05      3.01469      115.538 
4.46462e-06     0.968601      128.299 
2.09236e-05     0.260038      67.4310 
4.49652e-05      1.99354      103.341 
3.75032e-05      3.46600      108.859 
2.17678e-06     0.624982      140.212 
4.22923e-05      2.37400      113.332 
4.02955e-05      2.43556      122.251 
-0.000258386     0.250509     -28.6379 
7.53994e-06      2.39086      109.032 
1.81110e-05      2.28001      97.5647 
1.84064e-05     0.551483      133.511 
2.23279e-05      1.14614      83.9871 
4.93953e-05      1.16332      118.764 
1.20918e-05      3.16278      119.978 
0.000121327     0.101837     -78.5245 
6.97041e-05     0.411820      39.0837 
5.44656e-06     0.234065      69.9384 
2.52366e-05     0.953723      80.3524 
6.58058e-05      2.66674      114.842 
3.78131e-05      1.88650      94.8602 
8.29537e-05      2.40866      122.106 
3.65049e-05      1.38427      100.810 
1.68508e-06      1.00874      129.385 
3.23004e-05      2.38152      97.7139 
2.50836e-05      2.53058      107.000 
5.10559e-05      2.80920      115.285 
1.58490e-06      3.04996      110.343 
-5.58153e-05     0.373757      105.487 
2.14653e-05      1.05296      128.838 
-5.90268e-05      1.24025      127.799 
4.13577e-05     0.100252     -53.2159 
-8.77932e-05     0.520365      67.3547 
-2.06289e-05     0.470689      102.241 
4.78641e-06      3.47235      109.163 
-2.44044e-05    0.0828082      165.838 
-3.02298e-05     0.791661      135.000 
-2.86642e-05     0.369026      102.567 
-1.28719e-05     0.466942      99.9013 
6.89133e-06     0.432889      33.6901 
3.39728e-05     0.431906      76.6398 
1.15558e-06      3.49817      109.368 
-1.57995e-05      3.27521      121.261 
-2.48534e-05     0.486913      99.4914 
6.78295e-06      3.31040      118.116 
6.77791e-06      3.52331      109.573 
1.12668e-06      2.40438      98.1276 
4.46642e-06      2.64837      115.026 
-1.11298e-06      3.40110      105.339 
-0.000441645      8.10089     -90.9925 
0.000296461      10.0420      114.474 
0.000116786      7.15432     -9.33191 
