! Center RA: 12 21 31.69052,  Dec: +28 13 58.50011 (2000.0)
! Established model.
! Flux (Jy) Radius (mas)  Theta (deg)  Major FWHM (mas)  Axial ratio   Phi (deg) T \
! Freq (Hz)     SpecIndex
  0.114969      0.00000      0.00000 
 0.0309937    0.0202604      180.000 
 0.0814720    0.0286526     -135.000 
 0.0663089     0.107434      68.2729 
 0.0351169     0.223431      79.7468 
 0.0220679     0.243395      80.5958 
 0.0402006    0.0202604     -90.0000 
 0.0226294     0.240977      85.1771 
 0.0140782     0.126477      71.6725 
0.00607661     0.220795      84.7351 
0.00195675     0.247514      75.9638 
0.000963445     0.227911      74.7283 
0.00293378     0.101837      78.5245 
0.000476059    0.0286526      135.000 
0.00400130     0.262662      81.2912 
0.000504841     0.145849      74.1761 
0.00195421     0.280627      85.8598 
0.000500671    0.0802914      90.0000 
0.00416951    0.0600310      90.0000 
0.000921528     0.204262      78.7726 
0.000485099     0.164706      76.0271 
0.00365284     0.300838      86.1384 
0.000918962     0.184432      77.5470 
0.00311001     0.170734      69.4145 
0.00129480    0.0397705      90.0000 
0.00244387     0.320306      86.3734 
0.00121492    0.0202604      90.0000 
0.00120756     0.152624      66.8384 
0.000390149    0.0828082      75.8378 
0.000758885     0.188432      58.0188 
0.000384934     0.340529      86.5891 
0.000382385    0.0202604      0.00000 
0.000745729     0.134233      63.4349 
0.000377902     0.240124      90.0000 
0.00181829    0.0286526     -45.0000 
0.000373847     0.339925      90.0000 
0.00244151     0.219863      90.0000 
0.00309552     0.360186      90.0000 
0.000706956     0.172194      54.5784 
0.000681107    0.0998015      90.0000 
0.00258820    0.0446338     -63.0042 
0.000671651     0.212689      48.7190 
0.000647853     0.101837      101.476 
0.000323610     0.184676      49.4492 
0.000931823     0.201375      95.7743 
0.000620716     0.240790      48.4109 
0.00401672     0.379696      90.0000 
0.000310850     0.156126      50.2649 
0.00173399     0.220795      95.2649 
0.00115788     0.126477      108.327 
0.00173175    0.0562440     -45.0000 
0.000580015     0.141141      45.0000 
0.00110859     0.269397      48.0484 
0.000566046     0.169793      45.0000 
0.00706362    0.0720098     -56.4755 
0.00174709     0.156126      39.7351 
0.00170081     0.204262      101.227 
0.00140867     0.134233      116.565 
0.00304616     0.380236      93.0544 
0.00157423     0.283342      45.0000 
0.00136038     0.223431      100.253 
0.000445543     0.172194      35.4216 
0.00234326     0.493986      68.6188 
0.000611690     0.144435      33.7726 
0.000209305     0.400469      92.8999 
0.000206669     0.381773      95.9795 
0.000678547     0.152624      113.162 
0.00117378     0.401929      95.6787 
0.00208679     0.209153      106.680 
0.00139878     0.310934      45.0000 
0.000377844     0.161670      29.7779 
0.000374672    0.0720098     -33.5245 
0.00124157     0.404436      98.5360 
0.000491193     0.144435      123.773 
0.000493990     0.227911      105.272 
0.000179278     0.134233      26.5651 
0.00225464    0.0848966     -45.0000 
0.00236408     0.152624      23.1616 
0.000169281     0.512905      69.4440 
0.00256606     0.407936      101.351 
0.00312292     0.520365      67.3547 
0.000312751     0.501727      66.4638 
0.000835666     0.325575      42.4780 
0.00214787     0.601626      93.7903 
0.00135309     0.412220      104.011 
0.000364306     0.156126      129.735 
0.00291511     0.161670      119.778 
0.000872902     0.145849      15.8239 
0.000130569     0.474259      117.619 
0.000128318     0.421988      58.5994 
0.000128042     0.510656      120.559 
0.00140187     0.312731      39.8408 
0.00144691     0.521249      122.478 
0.00105762     0.432889      56.3099 
0.00196235    0.0896014     -63.6495 
0.00279065     0.603304      95.7106 
0.00115620     0.247514      165.964 
0.00126338     0.170734      20.5855 
0.000847588     0.416183      54.7625 
0.000383381     0.340220      40.2586 
0.000189362     0.532403      124.317 
0.00210552    0.0828082     -75.8378 
0.000273594     0.622720      95.5320 
0.000758162     0.560155      124.797 
0.00111902     0.327950      37.6565 
0.00126033     0.761182      92.9950 
0.000603121     0.243395      170.596 
0.000449975     0.427737      52.6275 
0.000219148     0.571959      126.464 
7.07468e-05     0.355922      38.1504 
0.00136625     0.449253      57.6903 
0.000459440     0.503350      83.1504 
0.000511781     0.297458      42.3417 
0.000173270     0.501338      85.4500 
0.00120530     0.727252      97.8876 
8.56249e-05     0.181229      96.4188 
8.26026e-05     0.500168      87.6785 
0.000312504    0.0633577     -71.3505 
0.00137062     0.882249      86.0984 
8.13476e-05     0.184432      102.453 
0.000307819     0.164706      103.973 
7.34584e-05     0.116465      148.973 
0.00135096     0.459977      55.6359 
0.00126367     0.903290      84.9004 
0.000140411     0.398226      107.547 
0.000340339     0.746582      97.6822 
7.02118e-05     0.107434      158.273 
0.000308761     0.126477      161.673 
0.00113789     0.840993      107.982 
0.000252452     0.379669      108.435 
0.000116217     0.764371      96.0296 
0.000116158     0.360505      109.453 
0.000564587     0.107434     -68.2729 
5.67078e-05     0.315980      34.7468 
5.61479e-05     0.367749      112.431 
0.000260472     0.344213      35.5958 
5.47986e-05     0.446997      100.348 
0.000207162     0.349107      113.700 
0.000203878     0.141777      171.784 
5.33076e-05     0.781960      94.4029 
0.000244928     0.780666      92.9202 
0.000579060     0.576909      123.649 
0.000140099     0.357396      116.565 
0.000348700     0.360880      33.7231 
0.00114620      1.42409      100.505 
0.000134291     0.847467      109.285 
0.000348907     0.456152      52.1498 
0.000135360     0.161111      172.776 
4.62617e-05     0.862036      86.0068 
4.60455e-05      1.11816      100.322 
9.00150e-05     0.101837     -78.5245 
0.000175786     0.369026     -102.567 
4.47855e-05     0.923472      85.0121 
0.000211707      1.13167      98.1194 
0.000273337     0.799913      90.0000 
4.42914e-05     0.509832      64.4533 
0.000171057     0.942149      86.3468 
8.65336e-05     0.350038      120.964 
0.000436983     0.384412     -98.9843 
0.000387247     0.172194      125.422 
0.000126597     0.536933      63.4349 
4.18932e-05     0.841826      85.9107 
8.15214e-05     0.366905      119.396 
8.09149e-05     0.120062     -90.0000 
0.000344645     0.753987      68.2092 
0.000118698     0.181229      173.581 
0.000985366      1.23208      76.8694 
0.000156278      1.12908      97.1392 
0.000153433     0.360880      123.723 
0.000120042      3.10043      91.1094 
0.000912336      1.40417      100.655 
0.000330302      3.10010      90.7351 
0.000185444     0.377263      32.0779 
0.000737388      3.12069      91.1022 
0.000138292     0.468857      50.1944 
0.000110396     0.141777     -98.2159 
0.000250963     0.404436     -98.5360 
0.000140270     0.201375      174.226 
3.65300e-05     0.866617      108.843 
0.000288763      1.14614      96.0129 
0.000171258     0.372066      126.223 
0.000168461     0.563176      62.5472 
0.000722884     0.604406      124.223 
0.000101863      1.13029      103.280 
0.00148278     0.735213      67.6230 
6.89100e-05     0.164706     -103.973 
6.70635e-05     0.394577      30.5153 
0.000590183      2.98407      86.9297 
0.000219770     0.316312     -108.392 
3.34292e-05     0.466621      46.7594 
0.00106994     0.422095     -95.4065 
0.000125279     0.189835     -108.435 
0.000501449     0.820423      88.5849 
0.000267499     0.220795      174.735 
3.25354e-05     0.560155      34.7971 
6.30553e-05     0.572799      60.7486 
3.18532e-05     0.421988      31.4006 
0.000120695      1.13512      104.275 
0.000152195     0.566331      32.0054 
0.000178424     0.384386      128.660 
0.000960910      2.71047      101.061 
6.06735e-05     0.959959      88.7907 
0.000302818     0.297155     -109.625 
0.000120869     0.600426      60.0064 
2.96577e-05     0.438758      30.0730 
2.86255e-05     0.456404      28.7984 
2.82774e-05     0.610413      58.4202 
0.000108000      1.30028      88.2473 
0.000690392     0.215843     -111.838 
8.26418e-05     0.582967      30.9891 
0.000101352      1.16438      94.9170 
0.000156643      1.60109      76.9993 
2.77392e-05     0.672210      53.4883 
0.000130709      1.14028      105.262 
0.000157168     0.684458      52.1250 
0.000104977     0.396866      130.860 
2.71872e-05     0.278155     -111.026 
0.000658198      3.44000      89.3376 
2.68969e-05     0.980005      90.0000 
0.000303065     0.593248      32.6046 
0.000561914      2.96575      86.5186 
0.000364106      1.61646      77.8607 
0.000367703     0.240977      175.177 
6.33947e-05      3.43983      89.6625 
6.92617e-05     0.980215      91.1844 
0.000120674      1.29983      89.1069 
0.000347685     0.696607      50.8582 
9.45922e-05     0.381773      132.849 
4.16227e-05      3.42050      89.3338 
4.58989e-05     0.491629      26.5651 
8.79033e-05     0.873371      110.101 
0.000243574      1.14557      106.203 
2.31881e-05      3.12114      91.4741 
0.000110175      1.38074      100.015 
4.50334e-05      1.44706      101.153 
0.000503188      1.29967      90.0000 
0.000181297     0.395830      135.000 
0.000359561     0.588377      125.291 
0.000236283     0.821137      87.2239 
0.000189352      2.29418      75.3547 
0.000180565      1.47094      101.774 
0.000207761      3.14196      91.8203 
0.000162201      2.94684      86.1015 
0.000581999      1.18457      94.8330 
0.000242311      1.35811      99.3166 
0.000356409      2.29939      74.8662 
0.000289182     0.610413      31.5798 
0.000133083      2.23991      79.1870 
0.000596400      3.00333      87.3220 
0.000342796     0.260423      175.538 
0.000700445     0.709570      49.5893 
0.000665025      1.21309      76.6600 
0.00107135     0.440193     -92.6380 
0.000809159      2.56665      85.9764 
3.59706e-05     0.188432      121.981 
0.000201916      3.46003      90.0000 
0.000310705      1.49483      102.348 
0.000116441     0.410407      137.000 
1.79325e-05      1.63145      78.7004 
0.000377250      2.23619      79.6969 
0.000442926      1.65132      78.8381 
0.000410650      2.30456      74.3980 
0.000225553     0.800901      87.1537 
0.000118387      3.40053      88.9885 
0.000288545      1.33505      98.6311 
0.000191184     0.205897      118.994 
0.000574213     0.600310      126.870 
3.14187e-05      3.16146      91.8090 
1.55904e-05     0.980812      92.3239 
3.00887e-05     0.483220      24.4955 
0.000129481     0.760096      116.565 
0.000336870      3.48035      90.3335 
0.000241984      3.16216      92.1759 
0.000135729      2.73356      101.399 
6.47471e-05     0.424884      138.795 
5.25703e-05      3.40095      88.6472 
2.80977e-05     0.310708     -104.976 
0.000144061     0.627763      30.6114 
7.39429e-05     0.501727      23.5362 
0.000216182      2.56828      81.4982 
0.000109416     0.291183     -106.006 
0.000188116      2.31009      73.9140 
0.000356063     0.280627      175.860 
0.000225980      1.15139      107.171 
0.000420105      1.51830      102.937 
0.000182342      1.70672      100.129 
0.000100127      2.65158      78.6901 
0.000202959     0.769370      117.915 
3.62815e-05     0.590559      61.7091 
0.000397585      3.38070      88.6391 
0.000104038      2.75342      101.316 
0.000605092      2.67547      78.3497 
8.85696e-05      2.21626      79.6032 
0.000267202      2.29709      73.2936 
0.000152844     0.780666      87.0798 
0.000259644      2.92802      85.6936 
7.94716e-05     0.440329      140.532 
0.000196289     0.271765     -107.184 
0.000160962      1.31209      97.8891 
0.000468976      2.61329      106.910 
3.79291e-05      2.69059      101.144 
0.000103129      2.21270      80.1192 
0.000176128     0.644631      29.7283 
3.22361e-05     0.441522     -95.1680 
8.87277e-05     0.493986      21.3812 
8.60113e-05      1.29983      90.8931 
7.75230e-05     0.746703      69.6529 
0.000195240      1.71026      100.773 
0.000134252      3.49986      90.3317 
5.69250e-05      1.12613      106.491 
9.07092e-06     0.234065     -110.062 
0.000128336     0.778695      119.183 
0.000294431      2.30278      72.8286 
0.000195766     0.279894      180.000 
5.86875e-05     0.233573      120.932 
9.27134e-05      3.02269      87.7236 
8.62950e-05     0.253192     -108.489 
0.000129022      3.18241      92.1621 
6.27627e-05     0.456152      142.150 
3.30959e-05      2.19348      80.0318 
3.87086e-05      2.67145      101.225 
0.000179500      2.19707      79.5114 
4.09243e-05     0.483985      60.2551 
2.61808e-05     0.518891      62.4344 
3.46947e-05      1.28157      92.6848 
6.58267e-05      1.51390      102.190 
8.50959e-05     0.460433     -92.5220 
5.58899e-05      2.67547      101.650 
0.000119682     0.600426      150.006 
6.39588e-05      3.48237      91.9758 
1.96673e-05      1.57201      75.2606 
3.19747e-05      1.29010      97.1167 
3.68987e-05      1.66758      79.6306 
1.29881e-05     0.781960      85.5971 
3.12473e-05     0.300838      176.138 
9.07717e-05      2.30884      72.3483 
4.97156e-05      1.13205      107.474 
-0.000182893      1.10008      117.019 
5.90500e-05      1.71416      101.438 
5.22254e-05      1.29703      116.565 
3.49249e-05      3.52007      90.0000 
2.33551e-05     0.512905      20.5560 
1.74386e-05     0.612215      128.331 
2.30817e-05     0.662301      28.8591 
4.01192e-05     0.788772      120.468 
5.80858e-06      1.57729      74.5488 
1.13723e-05      1.29277      98.0078 
5.66063e-06      2.57136      81.0517 
1.67612e-05      1.18645      95.8079 
5.61882e-06      1.56315      73.6617 
5.58363e-06     0.618057      150.945 
-0.00103257      3.10139     -16.0977 
0.000654248      11.4353     -122.357 
-0.000542291      10.9137     -145.001 
0.000447663      9.56533     -94.1974 
0.000245611      5.91274     -36.0584 
-0.000299014      6.29980     -22.9826 
-0.000598232      9.05556      173.658 
0.000444091      5.49760     -50.4608 
-0.000435234      9.11757     -120.446 
0.000615052      9.25655      131.056 
0.000370771      8.88206     -109.741 
0.000367650      1.07548     -99.6398 
0.000280352      3.86069      145.973 
0.000422787      5.40862     -104.347 
0.000462488      10.4529     -164.234 
0.000456665      5.92425     -36.2109 
-5.72951e-05      11.1587     -135.218 
0.000164360      2.95302     -148.572 
-0.000111324      12.0554      46.8816 
-0.000255286      10.6566     -132.794 
0.000251788      2.38158      178.068 
-5.54295e-05      8.79603      126.400 
5.53353e-05      11.3011      38.5327 
0.000301542      7.47678      158.998 
-0.000445725      8.78205     -96.8014 
-0.000156860      6.94300     -169.211 
0.000205466      12.8156     -46.2645 
0.000299098      5.30374     -145.287 
-0.000527272      9.58330     -10.5805 
0.000200395      13.5167      42.6625 
-0.000292740      8.11151      76.8894 
0.000390021      3.48997     -4.26643 
-0.000339145      8.78447      126.297 
-0.000197218      9.48601      130.811 
-0.000198778      9.16586     -70.4970 
-0.000285539      12.0416      46.9520 
0.000289186      11.2852      38.5967 
-5.27590e-05      11.1444     -135.292 
-0.000152204      9.14124      176.112 
0.000477887      3.87164      145.734 
-0.000144773      6.31846     -22.9109 
0.000150223      10.3928      24.1981 
-0.000327487      10.8860     -145.024 
-0.000425059      7.33135      174.679 
-0.000144499      3.19947     -132.472 
-5.10829e-05      9.83857     -32.0415 
0.000100637      2.97033     -148.776 
-0.000237920      10.2807      119.358 
-5.03632e-05      4.02251     -105.283 
-0.000325660      9.84933     -32.1414 
-0.000186596      9.26344     -33.5523 
-9.47469e-05      9.63786      163.485 
4.89964e-05      9.39174      153.707 
0.000186707      6.08705      54.9032 
-0.000225396      4.00297     -105.360 
-4.82195e-05      11.1583     -135.362 
-9.30113e-05      10.2281     -87.7590 
0.000294453      10.1014      146.060 
0.000181965      2.96364     -148.238 
-0.000181669      9.12103      176.103 
-0.000179390      6.92059     -42.7722 
0.000224813      10.3750      24.2423 
9.13732e-05      10.9606     -44.4841 
-4.67920e-05      5.15752      150.754 
0.000220503      10.9467     -44.5556 
0.000136130      10.8264      141.902 
8.98721e-05      5.48520     -50.6179 
8.87850e-05      9.37358      153.652 
-0.000133701      1.92192      92.3943 
0.000135172      7.80836      116.629 
-8.97859e-05      8.03450     -176.573 
-8.81246e-05      6.13557     -131.435 
4.51643e-05      8.94886      161.769 
-0.000131447      8.98598     -65.5473 
8.88035e-05      11.4458     -122.440 
-0.000407465      5.18510      150.668 
4.48892e-05      4.60967      151.215 
-8.75156e-05      7.32957      174.831 
8.79404e-05      7.06580      50.8574 
-8.77637e-05      9.15144     -16.3739 
4.44059e-05      6.57505     -120.932 
8.74417e-05      5.41349     -104.547 
-4.41019e-05      6.57814      13.3625 
-4.37405e-05      11.2445     -123.094 
4.36809e-05      9.94418     -46.2199 
8.62660e-05      9.32066      113.924 
-4.35953e-05      4.60528      70.4668 
4.35148e-05      10.8104      141.836 
-4.33159e-05      5.86867      143.873 
4.30763e-05      1.07906     -100.700 
-4.30650e-05      10.0498     -111.972 
-4.30382e-05      5.60064     -135.869 
4.30030e-05      8.03918     -99.0166 
4.28755e-05      5.14982     -29.5533 
4.28169e-05      9.25906      49.1177 
4.26762e-05      5.29888     -144.993 
-4.26620e-05      7.59168     -28.9946 
-4.25022e-05      4.59880      70.6958 
-4.25359e-05      10.2689     -114.018 
-4.24920e-05      7.01819      65.7725 
4.24429e-05      7.39799     -27.5371 
-0.000256036      12.1373      38.6449 
-0.000212412      10.0150      131.680 
-0.000371623      5.26843      58.6668 
-0.000325499      10.7411      60.1896 
-0.000247921      9.30863      12.1551 
-0.000376132      10.8352      136.195 
-0.000145774      6.41442      12.6088 
-0.000274753      11.7409      131.894 
9.87818e-05      8.35929      110.301 
-4.96682e-05      8.84051      89.6109 
-0.000427967      11.8658      128.705 
0.000287584      8.18974      147.669 
-0.000245926      8.08935      124.830 
-0.000170817      8.82025      89.6100 
-8.92710e-05      6.37993      12.8577 
0.000209496      4.87006      173.631 
0.000570090      11.2983     -129.327 
-0.000170795      10.0020      131.597 
0.000132219      8.03996     -42.5830 
0.000126134      7.39532      70.2394 
0.000253878      9.27810      49.5430 
-0.000435126      6.06026     -90.3760 
0.000235149      5.65233     -146.249 
4.62630e-05      8.39487     -42.3953 
0.000162290      1.95341     -132.509 
-0.000129471      12.0444      128.999 
4.56494e-05      9.40247     -146.718 
-0.000121724      7.20779     -20.2970 
8.90469e-05      8.36106      161.736 
-0.000352053      12.4456      125.912 
-8.75482e-05      8.15493      75.0750 
-0.000235790      8.41035      120.592 
8.44385e-05      8.36608      110.426 
0.000276193      7.47091     -59.2465 
-0.000123360      10.7280     -72.6474 
-0.000259594      5.17521      150.863 
0.000113500      13.0501     -47.3582 
-4.26741e-05      6.18357     -174.987 
0.000119548      9.38554     -146.650 
-0.000168305      9.28883      12.1814 
4.23763e-05      9.28081     -90.7412 
-7.98769e-05      10.1738      123.130 
-0.000157457      10.4243     -142.955 
-0.000639835      12.1221      38.7025 
0.000117352      8.38643      161.653 
-0.000298364      7.11081     -63.0753 
8.02253e-05      7.69152      70.7165 
-0.000111080      11.2885     -33.4355 
-0.000112215      12.9520     -140.263 
-0.000107950      10.2933     -143.932 
4.04568e-05      8.40803     -42.4935 
-0.000110951      8.17451      75.1116 
-0.000372121      10.8498      136.269 
7.88680e-05      7.87204      11.2799 
0.000185883      10.7918      141.621 
