! Center RA: 12 21 31.69052,  Dec: +28 13 58.50011 (2000.0)
! Established model.
! Flux (Jy) Radius (mas)  Theta (deg)  Major FWHM (mas)  Axial ratio   Phi (deg) T \
! Freq (Hz)     SpecIndex
 0.0433414     0.185635     -104.036 
 0.0142687     0.200228     -102.995 
0.00645792     0.171115     -105.255 
0.00238219    0.0300155     -90.0000 
0.00327139    0.0150077     -90.0000 
0.00818896     0.182577     -99.4623 
0.00192078    0.0808192      111.801 
0.00168682     0.156685     -106.699 
 0.0117130    0.0450232     -90.0000 
0.000962403    0.0875094      120.964 
0.00542168     0.100675      116.565 
0.00237732     0.167792     -100.305 
0.000680389     0.108222      123.690 
0.00461447     0.120996      119.745 
0.00209007     0.195677     -94.3987 
0.00155203    0.0474586     -108.435 
0.000723228     0.134233      116.565 
0.000409294     0.129101      125.538 
0.000137280     0.141583      122.005 
0.000268665     0.204127      107.103 
0.000756020     0.223106      109.654 
0.000368340     0.117214      129.806 
0.00177054     0.210108     -90.0000 
0.000690074    0.0335583     -116.565 
0.000611020     0.237293      108.435 
0.000115528     0.127345      135.000 
0.00153387     0.242457      111.801 
0.00165071     0.117214      140.194 
0.000306513     0.256452      110.556 
0.00257236     0.262099      113.629 
0.00136758     0.210644     -85.9144 
0.00119689     0.438319      128.047 
0.00127739     0.225616     -86.1859 
0.00119217     0.479544      110.136 
0.000637957     0.447724      129.560 
0.000583197     0.212241     -81.8699 
0.000649221     0.729382      126.634 
0.000325992     0.346481     -94.9697 
6.34768e-05     0.828830      121.675 
0.000123745    0.0474586     -71.5651 
0.000123701     0.457428      131.009 
0.000245474     0.849496      122.005 
0.000123810     0.345504     -92.4896 
6.03591e-05     0.360498     -92.3859 
0.00100018     0.483287      126.158 
8.61868e-05    0.0750387      126.870 
0.000731853    0.0671167      116.565 
0.000758795     0.504269      126.529 
0.000524800     0.695233      122.661 
0.000147181      2.33453      110.293 
7.35125e-05     0.225116     -90.0000 
0.00111822     0.240124     -90.0000 
0.00100284      2.32116      110.415 
0.000343268     0.492290      127.569 
0.000929214     0.715981      123.024 
0.000270322    0.0949173      108.435 
0.000306590    0.0618785     -104.036 
0.000339400     0.109258      105.945 
0.000181900      2.32644      110.762 
0.000636821     0.736756      123.366 
0.000118090      2.27373      110.456 
0.000454880     0.255132     -90.0000 
5.77775e-05      2.33978      110.638 
0.000223506      2.25445      110.232 
5.68618e-05      2.54740      109.604 
0.000423116      2.56659      109.807 
0.000367257     0.757556      123.690 
0.000708929     0.255573     -86.6335 
0.000306584      2.23519      110.004 
0.000104001      2.34861      110.166 
0.000148491     0.778380      123.996 
4.91237e-05      2.57171      110.122 
9.71053e-05     0.799224      124.287 
0.000142959      2.59098      110.319 
0.000363098      2.21597      109.773 
0.000141110     0.495483      125.134 
4.75595e-05     0.811668      123.690 
9.22891e-05      2.35761      109.698 
0.000318992     0.820088      124.563 
0.000404204     0.270556     -86.8202 
9.18508e-05      2.59623      110.630 
0.000389042    0.0600310     -90.0000 
0.000132940      2.61558      110.822 
4.48308e-05     0.474586      124.695 
0.000129137     0.123757      104.036 
0.000208081     0.316589      121.430 
0.000128256     0.487001      123.690 
0.000171976     0.840969      124.824 
8.48710e-05      2.35259      109.354 
4.30518e-05      2.64037      111.315 
8.47285e-05     0.285542     -86.9872 
4.25829e-05      2.67930      111.679 
4.21761e-05      2.21094      109.407 
0.000205193      2.69880      111.858 
0.000204337     0.849629      125.655 
8.30567e-05     0.315163     -90.0000 
0.000528447      2.19679      109.537 
0.000197259     0.478839      122.196 
4.08532e-05     0.330170     -90.0000 
4.07911e-05     0.218516      105.945 
0.000159294     0.330511     -87.3974 
0.000274537      2.89371      107.491 
0.000155948      2.34766      109.008 
4.00695e-05     0.138365      102.529 
3.95917e-05     0.732771      124.992 
7.78563e-05     0.241993     -82.8750 
0.000229051     0.858464      126.469 
0.000507440    0.0750387     -90.0000 
3.87899e-05     0.153050      101.310 
0.000330100     0.345504     -87.5104 
0.000149424      2.71833      112.033 
3.82421e-05     0.200228      102.995 
0.000363394     0.324667      123.690 
0.000477108      2.90357      107.119 
0.000276974     0.229574     -78.6901 
0.000109499     0.476717      118.179 
0.000177002      2.35704      108.545 
7.09306e-05     0.182577      99.4623 
0.000105554     0.720528      125.676 
0.000178574     0.879459      126.674 
0.000103022     0.150826      95.7106 
0.000314382      2.90803      107.402 
0.000169505     0.469817      116.565 
0.000168479      2.72400      112.326 
0.000264104     0.888504      127.451 
0.000498633     0.360498     -87.6141 
0.000132021      2.19207      109.185 
0.000159296      2.35231      108.198 
3.27737e-05     0.476953      114.146 
0.000119406     0.708391      126.384 
9.32348e-05     0.165766      95.1944 
0.000241212      2.17790      109.315 
0.000211295     0.471014      112.479 
3.15166e-05      2.73789      112.207 
6.20804e-05     0.214878     -77.9052 
0.000211663     0.897709      128.211 
0.000119207      2.74359      112.497 
0.000118572     0.345504      124.380 
0.000481443      2.91792      107.032 
5.96152e-05      2.44831      115.780 
0.000735690     0.218516     -74.0546 
5.89519e-05      2.34789      107.867 
5.72758e-05     0.150077      90.0000 
2.88613e-05      2.45487      116.095 
0.000243501    0.0912885     -80.5377 
5.72466e-05     0.909548      127.626 
8.25635e-05     0.180717      94.7636 
2.85858e-05      2.33361      107.981 
5.62681e-05      2.46151      116.409 
5.57463e-05      2.08083      111.560 
0.000386043     0.918788      128.367 
0.000108928     0.465482      110.772 
0.000578826     0.375494     -87.7094 
2.78453e-05      2.32903      107.629 
0.000106716      2.48839      116.874 
2.75285e-05     0.594655      132.955 
0.000398293      2.07248      112.098 
7.99342e-05      2.32452      107.277 
2.69851e-05      2.74937      112.786 
2.68077e-05      2.59028      118.347 
0.000128779     0.764217      109.502 
0.000127862      2.61062      118.480 
0.000125309     0.474586      108.435 
7.64007e-05      2.92235      107.314 
9.61907e-05     0.195677      94.3987 
5.04831e-05     0.604981      133.995 
2.57735e-05      2.17298      108.942 
5.06995e-05      2.88458      109.750 
5.04632e-05      2.32011      106.923 
2.54180e-05     0.165085      90.0000 
0.000264494     0.333226      125.838 
0.000640262      1.19853      133.478 
7.51251e-05     0.928177      129.094 
0.000116506      2.46822      116.721 
7.20185e-05      2.31579      106.568 
0.000264923      2.63097      118.612 
9.38329e-05     0.180093      90.0000 
0.000137865      2.88969      110.030 
7.04891e-05     0.817750      132.769 
2.37316e-05     0.615500      135.000 
0.000111697     0.470056      106.699 
0.000273552     0.759338      108.435 
4.56832e-05     0.604981      136.005 
4.58250e-05      2.31155      106.211 
0.000105547     0.135901      83.6598 
0.000175827      2.93227      106.946 
4.43797e-05      2.30741      105.853 
0.000124865     0.828014      133.531 
0.000535534      2.06431      112.641 
0.000112677      2.48118      103.288 
0.000103864     0.615866      136.975 
0.000178411     0.195101      90.0000 
0.000120568      2.44808      116.565 
6.23673e-05      2.89486      110.309 
0.000159202      2.95102      107.140 
2.10199e-05      2.29939      105.134 
4.08291e-05      2.49578      103.209 
0.000120891     0.390490     -87.7974 
0.000115724     0.465966      104.931 
2.02161e-05      2.29552      104.772 
5.90766e-05     0.768347      107.037 
5.87347e-05      2.90011      110.587 
0.000651126     0.849231      133.568 
0.000127888    0.0765248     -78.6901 
0.000147995      2.49240      102.873 
0.000287876     0.391354     -85.6013 
1.95412e-05      2.29174      104.409 
0.000111243     0.626921      137.911 
0.000127275      2.63819      118.898 
7.60998e-05      1.20890      133.994 
0.000104655      2.68239      105.895 
1.89183e-05      2.28805      104.045 
9.91248e-05     0.764084      105.961 
0.000209935      2.96980      107.332 
7.25749e-05      2.90542      110.864 
0.000390922      1.21974      133.504 
3.68627e-05     0.120996      82.8750 
1.85827e-05      2.28445      103.680 
0.000188750      2.67852      105.601 
5.28859e-05     0.210644      94.0856 
1.83751e-05      2.42863      116.399 
3.58752e-05      2.28095      103.314 
0.000102840      2.36822      116.719 
1.78440e-05     0.138365      77.4712 
1.77808e-05      2.60492      103.324 
0.000266602     0.462326      103.134 
0.000161834     0.638138      138.814 
1.73426e-05      2.29217      102.862 
0.000155673     0.123757      75.9638 
6.67550e-05      2.91080      111.140 
3.35478e-05      2.65134      118.741 
3.37065e-05      2.28888      102.496 
0.000190211     0.760095      104.873 
0.000253656      2.47777      102.950 
0.000306411     0.210108      90.0000 
8.24622e-05      2.60150      103.002 
0.000364509     0.406319     -85.7636 
6.40902e-05      2.28567      102.129 
0.000103610      2.70516      106.419 
0.000197844      2.65859      119.025 
9.17503e-05      2.98861      107.521 
1.59941e-05      2.37501      117.043 
0.000202102      2.05047      112.802 
0.000168920      2.99317      107.794 
0.000333694      2.36165      117.208 
4.60504e-05      2.91624      111.415 
4.54365e-05      2.28257      101.761 
0.000151546      1.23012      134.011 
0.000187621     0.649508      139.686 
5.77578e-05      2.29427      101.317 
4.30882e-05      2.93571      111.581 
9.32367e-05     0.756382      103.774 
0.000232984      2.05633      113.188 
2.84027e-05     0.106121      81.8699 
1.42850e-05      2.58353      102.753 
0.000212839      1.24096      133.530 
0.000106207      2.29137      100.949 
7.87823e-05      2.94126      111.853 
0.000268786     0.459149      101.310 
1.35628e-05      2.87624      106.350 
7.69629e-05     0.752949      102.665 
5.03183e-05    0.0912885      80.5377 
4.87666e-05      2.87205      106.063 
0.000122063      1.67935      108.767 
0.000209887     0.422622     -83.8845 
0.000137871      2.70095      106.114 
6.11555e-05      3.01206      107.979 
0.000106567      2.28857      100.580 
8.87960e-05     0.749802      101.546 
0.000488013      1.25134      134.028 
7.05771e-05      2.94688      112.124 
0.000148612      2.66590      119.307 
3.30652e-05     0.661022      140.528 
0.000109384      3.01672      108.250 
0.000467369     0.651585      141.546 
3.35971e-05    0.0474586      108.435 
8.69801e-05     0.746943      100.418 
0.000170444      1.67458      108.281 
9.47327e-05      2.30063      100.144 
9.22249e-05      2.95256      112.394 
5.14026e-05      2.86793      105.774 
0.000249403     0.210644      85.9144 
0.000129272     0.661874      86.0995 
1.07045e-05     0.109258      74.0546 
6.16370e-05     0.424483     -81.8699 
9.53640e-05    0.0335583      116.565 
1.95677e-05    0.0212241     -135.000 
1.02197e-05      2.36855      117.531 
0.000237838      2.35525      117.700 
0.000167816     0.223106     -70.3462 
0.000234481     0.439345     -82.1467 
0.000406699      3.04047      108.699 
0.000272766      1.27256      134.044 
7.50527e-05      2.28586      100.211 
0.000164394      2.04854      113.739 
9.96684e-05      2.29804      99.7760 
0.000111917     0.900840      87.1352 
7.44287e-05      1.66994      107.792 
1.84492e-05     0.128226      69.4440 
0.000102464      2.95831      112.662 
0.000134471      1.79375      104.042 
0.000106949      2.88238      105.693 
9.07886e-05      2.67328      119.587 
6.56776e-05    0.0212241      135.000 
3.40008e-05      2.62538      96.2353 
4.91440e-05      1.66541      107.300 
0.000101220     0.663064      84.8056 
0.000221103      1.36325      129.640 
6.90228e-05      2.62379      95.9095 
1.50846e-05     0.134233      63.4349 
1.54458e-05      1.66641      103.542 
0.000195350      3.42960      108.352 
0.000200691      2.96413      112.930 
0.000148298      2.05463      114.122 
7.55246e-06      1.67759      102.924 
0.000187185      2.28325      99.8400 
0.000249156     0.916689      86.2452 
6.34047e-05      1.67429      102.423 
4.77549e-05    0.0335583      153.435 
6.18904e-05      2.68072      119.866 
0.000113788     0.495483     -88.2643 
9.11602e-05      1.37287      130.122 
7.04576e-05      1.79017      103.576 
5.42470e-05      2.62229      95.5833 
0.000116196    0.0300155      180.000 
6.64079e-05     0.342229      127.875 
0.000147228      1.28304      134.526 
1.97980e-05     0.454217     -82.4054 
6.60437e-06      1.66034      108.443 
6.58414e-06      2.46657      103.368 
7.91516e-05      2.89683      105.613 
6.67836e-05      1.67113      101.920 
0.000524916      2.14520      132.164 
0.000163504      1.62429      132.379 
4.10991e-05     0.141583      57.9946 
0.000140374      2.63722      95.5516 
2.34286e-05      2.47008      103.707 
2.46660e-05      2.68823      120.144 
0.000422495      3.43436      108.589 
0.000116823      2.79139      88.1514 
0.000120443     0.930008      127.822 
1.21723e-05     0.212241      81.8699 
5.57578e-05      1.66515      108.933 
0.000168889     0.510263     -90.0000 
4.57816e-05      2.70875      120.259 
0.000121378      2.13869      81.5259 
0.000222906      2.36226      118.022 
0.000139543      2.89814      87.3287 
0.000105864      2.27109      100.278 
3.64603e-05      1.66810      101.416 
4.68307e-05      2.71634      120.532 
7.54223e-05      1.26182      134.518 
4.43950e-05     0.150077      53.1301 
1.95324e-05      1.78670      103.108 
7.32193e-05      2.06081      114.503 
3.32163e-05      2.88434      116.565 
0.000315531      2.14095      81.1286 
2.70771e-05      2.47368      104.045 
5.62402e-05     0.838421      134.275 
0.000123910     0.905404      63.4137 
0.000167631      1.63444      132.767 
1.44703e-05      2.74458      120.913 
2.79906e-05      1.68281      101.315 
2.27903e-05      2.91534      105.818 
1.39818e-05      2.76517      121.020 
0.000161187    0.0335583     -153.435 
3.10821e-05      2.77639      88.1414 
4.55718e-06      2.72381      106.633 
1.34828e-05      2.77293      121.286 
4.09970e-05      2.28073      99.4685 
2.18999e-05      2.89888      87.0324 
1.76554e-05      2.25907      100.720 
4.48688e-05     0.159534      48.8141 
1.27048e-05      2.65611      105.065 
4.87095e-05      1.67993      100.813 
2.98436e-05      2.79356      121.389 
1.29984e-05      2.76567      107.348 
8.55274e-06      2.91129      105.534 
3.34174e-05      2.91313      87.3425 
2.54188e-05     0.351643      129.806 
5.54706e-05      2.26846      99.9048 
0.000120191      2.89108      116.831 
8.34924e-05      1.67008      109.420 
2.00660e-05     0.754727      107.354 
6.97685e-05      2.77692      87.8319 
1.22409e-05      2.78000      107.256 
5.41249e-05      2.92978      105.738 
8.08662e-05      2.24433      100.791 
1.92086e-05      1.12402      133.918 
5.37467e-05      2.80140      121.651 
4.07453e-06      2.24719      101.167 
8.24229e-05      2.91387      87.0477 
0.000142941      1.14524      133.938 
2.96118e-05      2.78449      107.551 
3.92011e-06      1.78336      102.639 
6.83434e-05      2.47737      104.381 
3.88343e-06      2.06708      114.881 
7.59859e-06      2.63393      104.519 
7.19131e-05      2.05347      115.057 
0.000126188     0.642359      142.595 
7.28111e-06     0.917794      85.3103 
6.48137e-05     0.169793      45.0000 
0.000103428      2.04697      94.6258 
2.96448e-05      1.67718      100.309 
3.61871e-06     0.676847      86.1859 
0.000128813      1.10232      75.0083 
3.10219e-05      2.80931      121.911 
6.00127e-05      1.64467      133.151 
2.00927e-05      2.28497      122.119 
2.86439e-05      2.79881      107.458 
3.90080e-05     0.661022      87.3974 
1.54078e-05     0.480482      104.470 
6.36028e-05      2.82998      122.009 
6.93634e-05     0.510484     -88.3153 
5.38617e-05      2.91468      86.7531 
4.88277e-05      2.30567      122.237 
2.88553e-05     0.361434      131.634 
5.59937e-05      2.14332      80.7322 
1.19594e-05     0.335583     -100.305 
0.000146396      1.65565      132.796 
2.65032e-05      2.95247      106.219 
3.58041e-05      2.77753      87.5225 
2.90849e-05      2.45365      79.7829 
0.000116215      2.63872      95.8760 
4.56170e-05      2.80334      107.751 
1.56869e-05      3.06440      109.140 
2.69617e-05      1.67456      99.8042 
2.88340e-06     0.932753      85.3856 
0.000137022      2.45104      80.1282 
9.29271e-05      2.94832      105.939 
5.18020e-05      2.91557      86.4586 
7.94254e-05      2.83797      122.266 
5.40426e-06      2.11766      124.022 
3.51272e-05     0.338590     -102.804 
8.02518e-06      2.13906      79.0803 
1.49058e-05      2.48114      104.717 
2.49763e-05      2.36935      118.343 
7.01650e-05      1.97590      120.061 
4.01630e-05     0.848966      135.000 
5.24567e-06      2.14196      78.6861 
4.15195e-05      1.67513      109.904 
3.34258e-05     0.350359      133.264 
9.93384e-05      2.03085      94.2380 
2.59424e-06      2.14495      78.2930 
0.000110419      2.14805      77.9010 
7.95399e-05      2.31371      122.551 
5.94337e-05    0.0474586     -161.565 
2.08876e-05      2.27831      99.0962 
2.75881e-05      1.65726      99.3813 
6.49544e-05      1.09853      75.7644 
5.19407e-05      2.91653      86.1644 
2.39664e-06     0.931666      86.3056 
6.36066e-05      2.80543      125.650 
3.05335e-05      2.81764      107.658 
1.78579e-05     0.180717      41.6335 
9.95494e-06      3.03569      108.430 
2.12092e-05     0.511145     -86.6335 
8.67084e-06      2.77822      87.2133 
2.99763e-05      3.42491      108.113 
2.81663e-05     0.654344      143.393 
4.32681e-06     0.323973     -103.392 
2.81587e-05     0.360811      135.000 
1.56761e-05      2.04716      114.677 
1.58673e-05      1.16646      133.957 
4.58870e-05      1.65488      98.8686 
4.66706e-05      2.91758      85.8703 
3.85317e-05      2.15531      132.460 
3.77521e-05      3.42027      107.874 
7.94255e-06      1.65497      133.530 
1.57377e-05      1.96292      120.280 
7.65352e-06     0.491604     -77.6609 
-4.92170e-05     0.724269      55.9807 
7.82585e-06      2.76323      87.1982 
7.77644e-06      2.23246      101.242 
1.50769e-05     0.327774     -105.945 
-4.86849e-05      1.84221      96.5490 
1.85307e-05      1.66588      133.175 
-2.21528e-05      3.14705      104.626 
7.34983e-06      1.35172      130.046 
7.32272e-06      2.62087      84.7432 
3.67440e-06    0.0450232      180.000 
-7.26660e-06      1.13929      110.834 
-0.000598507      5.62171     -139.976 
-0.000618323      5.33391      6.94905 
-0.000279125      8.61843      149.686 
-0.000482197     0.700718     -80.1342 
-0.000270594      4.79171      104.687 
-0.000396501      5.42288      149.038 
-0.000291026      3.70589     -47.7903 
-0.000116848      8.33873      131.863 
-0.000251154      4.40510     -16.2122 
-0.000317361      8.58721     -59.4484 
0.000181781      7.15508      90.3605 
0.000305413      6.70498     -90.5130 
0.000212577      5.81684     -149.468 
0.000244785      7.14629     -80.5782 
-0.000215299      3.38070      120.093 
0.000141958      2.09280      33.0006 
0.000336716      7.39817      139.851 
7.50783e-05      6.68997     -90.5141 
0.000147202      5.57117      53.0977 
-0.000108440      3.75322      37.6901 
0.000109178      7.06268      32.0673 
0.000232958      5.38543      80.3828 
-0.000268403      6.74083     -108.955 
0.000204866      3.25402     -34.8665 
-0.000259551      3.80090     -37.1369 
0.000290633      5.89900     -46.4432 
