! Center RA: 12 21 31.69052,  Dec: +28 13 58.50011 (2000.0)
! Established model.
! Flux (Jy) Radius (mas)  Theta (deg)  Major FWHM (mas)  Axial ratio   Phi (deg) T \
! Freq (Hz)     SpecIndex
  0.190524    0.0720098      146.476 
  0.135143    0.0633577      161.350 
 0.0362798    0.0896014      153.650 
 0.0105439     0.280627      94.1402 
0.00130291     0.144435      146.227 
 0.0279911    0.0446338      153.004 
 0.0241770     0.156126      140.265 
 0.0257064     0.282706      98.0871 
 0.0180755    0.0202604      180.000 
 0.0422851     0.262662      98.7088 
 0.0125123     0.128090      141.183 
0.00774072     0.100252      143.216 
0.00166131     0.141141      135.000 
 0.0155088     0.286260      102.105 
 0.0104460     0.169793      135.000 
0.000715183    0.0397705      180.000 
0.00743566     0.178866      116.673 
 0.0106712     0.161670      119.778 
0.00566306     0.310708      104.976 
0.00209851     0.144435      123.773 
0.00384273     0.334882      107.339 
0.00238800     0.354273      106.362 
0.00595911     0.379669      108.435 
 0.0169200    0.0202604     -90.0000 
0.00266966     0.170734      110.586 
0.00148918     0.398226      107.547 
0.00537092     0.189835      108.435 
0.00550889     0.404795      110.283 
0.00595022     0.423858      109.333 
0.00444168     0.184432      102.453 
0.00196642     0.437032      105.945 
0.00452903     0.481892      94.7340 
0.00111150     0.204262      101.227 
 0.0152254    0.0397705     -90.0000 
0.00741036     0.360505      109.453 
0.00428284     0.501338      94.5500 
0.00182722     0.184676      130.551 
0.000546384     0.386554      111.285 
0.00406626     0.784114      109.337 
0.00529837     0.500168      92.3215 
0.00152351     0.199903      143.087 
0.000648750     0.181229      96.4188 
0.00381284     0.810035      110.214 
0.00188135     0.216445      146.310 
0.00298609    0.0446338     -63.0042 
0.000193086     0.679409      103.606 
0.000364264     0.341468      110.586 
0.00221044     0.651243      100.624 
0.000364949     0.180093      90.0000 
0.000334734     0.159832      90.0000 
0.000646376     0.835434      111.056 
0.00102623     0.233573      149.068 
0.000157117     0.161111      82.7757 
0.000156206     0.560155      124.797 
0.00348014     0.659734      104.020 
0.000409503     0.197181      114.029 
0.00341272     0.866617      108.843 
0.00244056     0.188432      121.981 
0.00264106    0.0802914     -90.0000 
0.00216862     0.655281      102.365 
0.00241324     0.873371      110.101 
0.000433983     0.635505      102.756 
0.000703986     0.198446      135.000 
0.000526536     0.582967      120.989 
0.000398334    0.0633577     -71.3505 
0.000267880     0.201375      95.7743 
0.00141461    0.0828082     -75.8378 
0.000487133     0.200353      90.0000 
0.000224490     0.593248      122.605 
0.000446587     0.576909      123.649 
0.000746412     0.880267      111.293 
0.000112343     0.201375      84.2257 
0.000640769     0.499758      90.0000 
0.000317553     0.250509      151.362 
0.00202544    0.0720098     -56.4755 
0.000607461     0.891718      109.670 
0.000762690     0.500168      87.6785 
0.000748568     0.278155      158.974 
0.000197540     0.588377      125.291 
0.000747203      1.20797      109.335 
0.000189131     0.204262      78.7726 
0.000708289     0.604406      124.223 
0.000612887     0.945882      103.441 
0.000595671     0.671167      100.305 
0.000174729     0.209153      73.3204 
0.00168730      1.21483      110.237 
8.75930e-05     0.480675      87.5843 
8.65123e-05     0.501338      85.4500 
0.000979315     0.340220     -139.741 
0.000636749     0.481892      85.2660 
0.000163974     0.297155      160.375 
0.000314406     0.215843      68.1616 
0.00182659     0.600310      126.870 
0.00120878     0.616029      125.781 
0.000577278     0.941538      102.286 
0.000365992     0.310708      165.024 
0.000968184    0.0848966     -45.0000 
0.000739536     0.483985      82.8750 
0.000212396     0.223834      63.5208 
0.00409217      4.90383      110.279 
0.000764258     0.329594      165.900 
0.000323547     0.372066      53.7772 
0.000259354      1.22172      111.096 
0.00166069     0.355922     -141.850 
0.000369498      1.23386      109.912 
0.000178173     0.861421      111.783 
0.000120447     0.961344      102.029 
0.000717771     0.384386      51.3402 
0.000451887     0.486913      80.5086 
0.000668018      1.24064      110.759 
0.000518338     0.957327      100.843 
0.00140958     0.100252     -36.7841 
0.000166117      7.54747      112.759 
0.000442752      7.75285      110.540 
5.49605e-05     0.667840      98.5944 
0.000315055      7.55533      112.900 
0.000157260     0.240977      4.82291 
0.000203997     0.708758      106.420 
0.00182742     0.345185      169.985 
0.00113906     0.470689      77.7585 
0.000591086      1.24796      111.629 
0.00228219      7.74577      110.399 
0.00120844      7.54529      113.100 
0.000650604     0.260423      4.46202 
0.00227195      4.70113      119.290 
4.83596e-05     0.682496      95.0461 
0.000564221     0.396866      49.1402 
9.29090e-05     0.714519      107.921 
0.000524275      1.25557      112.488 
8.75718e-05     0.681013      93.3479 
0.000353930     0.740145      108.931 
0.000878852      1.26317      113.306 
0.000114223     0.700111      90.0000 
0.000480556     0.972963      99.4551 
0.00131634     0.475398      75.3715 
0.00232641     0.384386     -141.340 
0.00193343      7.55297      113.236 
0.000132282     0.720656      88.3890 
0.000715647      7.60904      109.339 
0.000197423     0.395830      45.0000 
0.00186072      7.21983      96.0436 
0.00127118      4.90033      113.318 
0.000503876      1.27132      114.144 
0.000874168      9.65257      111.517 
6.14290e-05     0.746703      110.347 
0.000583946     0.410407      47.0005 
0.000261564      1.26660      105.568 
5.88061e-05     0.721469      86.8400 
5.76804e-05     0.259634      0.00000 
0.00131951      9.60462      112.397 
2.79522e-05     0.765732      109.820 
0.000344557     0.742313      85.3614 
0.00112684     0.735975      47.2312 
0.00139264      4.89710      110.065 
0.000343419     0.279894      0.00000 
0.000517850     0.772836      111.233 
0.000391894      1.27974      114.972 
0.00155587      4.71108      119.505 
0.00146790      7.60260      109.200 
6.64170e-05      1.29091      106.202 
0.000363219      1.08000      91.0749 
0.000511746      1.28810      115.759 
9.95044e-05     0.791053      110.721 
2.11067e-05      1.28540      105.334 
0.000100959      7.49167      114.442 
0.00116833     0.444008     -54.2147 
0.000355125      1.31037      105.954 
0.000278764     0.410407      42.9995 
1.97872e-05      1.24172      104.918 
1.96379e-05     0.349279      166.710 
0.00164024      9.79771      111.432 
0.000385475      7.48362      114.306 
0.00100528     0.749880      46.0947 
3.62142e-05      1.22288      105.153 
0.00115518      7.21773      95.8837 
0.000176267      7.74077      110.728 
4.84371e-05      1.20333      105.406 
0.000282423     0.612215      128.331 
0.000491968      4.71324      120.047 
5.74411e-05      1.19830      104.506 
0.000406247      1.29703      116.565 
8.70491e-05      1.17870      104.753 
5.98455e-05      1.08054      92.1093 
5.10574e-05     0.459977     -145.636 
-0.00174374      7.32068      111.307 
-0.000860469     0.916147      53.8622 
0.000528555      7.58418      109.249 
6.93936e-05      9.59720      112.290 
0.000107480     0.744225      83.8065 
-0.000713738     0.320306     -93.6266 
0.000314887     0.368782     -139.373 
0.000156954      1.31587      106.771 
8.68315e-05      4.72072      119.711 
0.000143212      4.74055      121.544 
0.000391198      7.45382      112.230 
4.47815e-05      1.15984      104.998 
4.21792e-05      1.14028      105.262 
0.000107295      4.75118      121.752 
7.92415e-05      1.13512      104.275 
0.00144058     0.750414      48.2428 
0.000259550      7.43577      112.287 
0.000634547     0.411965      112.829 
0.000560225     0.353651     -137.236 
-0.000784056     0.300155     -90.0000 
0.000281389      1.11549      104.532 
0.000263351     0.766666      82.5202 
-0.000871969     0.671167      26.5651 
0.000335678      4.75509      122.288 
0.000757780      7.42811      112.142 
-0.000899924     0.904347      54.8989 
0.000162020      1.32186      107.612 
-0.000551239      4.74349      108.435 
0.000306674      7.23998      96.0267 
0.000388164      4.89019      109.842 
0.000106352     0.424884      41.2050 
0.000118685     0.113549     -45.0000 
8.03909e-06     0.438632      114.241 
-0.000619638     0.227911     -164.728 
7.90943e-06     0.319665      0.00000 
1.50604e-05     0.340529     -3.41094 
1.49002e-05     0.440329      39.4680 
-0.000279913      1.21490      122.924 
0.000200915     0.339586     -135.000 
0.000221209      7.40935      112.201 
0.000178000     0.381773     -174.020 
0.000134067      1.30622      117.360 
-7.05034e-05      4.52996      119.057 
0.00334562      6.96707     -113.694 
0.00231277      10.1782     -162.738 
0.00197248      4.74093     -149.864 
0.00248100      2.96000      72.3046 
0.000990811      4.35209      52.6579 
0.000868317      11.5719     -129.881 
-0.00151821      5.47174      11.5981 
0.00140231      4.36822      52.8191 
0.00136173      8.88234     -1.29249 
0.00164501      11.5594     -129.807 
0.00105885      11.0230      64.8759 
-0.00121161      6.53727      149.275 
-0.000757667      10.3826      48.2021 
0.000737691      7.00934      51.9523 
-0.000869792      6.77019      23.6897 
-0.00101725      10.6999     -143.128 
-0.00130041      8.44969     -71.2207 
-0.000312697      6.07208     -67.7423 
0.00113885      8.90192     -73.1536 
0.00100237      9.24621     -7.83155 
-0.000590028      6.17777      78.8006 
0.000606037      6.76357     -99.0192 
-0.00113186      6.21005     -144.566 
-0.000842426      11.0666      121.853 
0.00111984      11.6016     -48.2852 
-0.000986914      10.1205      122.245 
-0.000153114      8.96909     -149.146 
0.00145386      7.34119      24.1207 
-0.000564543      6.79294     -108.011 
-0.000151621      10.3972      48.2737 
0.00109799      10.5033     -111.681 
-0.000964823      10.1867     -130.381 
-0.000817474      9.04524     -4.31048 
0.000569933      9.42201     -148.808 
-0.000550398      8.97949     -149.035 
0.000958070      12.2719     -130.439 
-0.000146903      6.06443     -67.9195 
-0.000955246      6.01126     -106.625 
0.000817323      7.63771      106.583 
0.000819580      8.35526     -18.9996 
0.000807730      8.49431     -39.6487 
-0.000684480      6.03028     -69.8220 
0.00157552      11.9507      49.8877 
-0.000408043      10.0371     -168.621 
0.000666385      11.2776     -136.941 
-0.000667935      3.04667      7.54335 
0.000278506      3.14196      88.1797 
-0.000141727      13.2866     -40.7884 
0.000672015      5.34590     -76.5919 
-0.000536675      12.1054     -131.114 
0.000532086      9.54640      152.146 
0.000662614      9.10907      172.935 
0.000266840      8.00699      154.713 
0.000266823      6.76042     -98.8496 
0.000389479      1.79178      123.158 
0.000522066      9.26987      48.8499 
0.000654489      13.7952      133.179 
0.000394247      2.96623      71.9317 
0.000649006      4.09210      50.5509 
-0.000263693      13.2719     -40.8434 
-0.000387446      4.11808      172.187 
-0.000519772      5.06128     -1.35928 
0.000390008      6.13628      109.614 
0.000386691      9.80817      36.5446 
0.000390029      8.83780     -152.797 
0.000257836      9.01388      56.3113 
-0.000258642      6.52050      149.188 
0.000257137      8.66780     -29.2834 
0.000129703      8.90749     -80.3052 
-0.000128699      11.0721     -123.431 
-0.000252561      8.58707      146.495 
0.000252180      9.43934     -148.871 
-0.00117616      7.44785      92.6159 
0.000250939      8.38678     -44.3221 
-0.000126215      6.78670     -107.848 
-0.000126105      6.05403     -67.6724 
0.000125774      7.42463     -94.6376 
0.000125262      8.92131     -73.1914 
0.000125274      3.37213     -152.831 
0.000124841      11.4446     -147.200 
-0.000124540      7.98867      19.2961 
0.000123913      3.71270      71.4625 
0.000123917      8.28435      50.5832 
-0.000658559      4.46400     -74.4078 
-0.000920199      4.45072     -74.0891 
0.000829583      3.70001      72.0574 
-0.000236495      3.89292     -69.2384 
-0.000322698      3.88833     -68.5846 
-0.000532410      10.5322      24.8122 
-0.000638350      6.07637     -9.08776 
0.000324777      9.19637      60.7034 
-0.000600762      10.0641     -70.3775 
-0.000709391      10.6202      109.357 
0.00102178      9.72458     -149.743 
-0.000489533      9.13778     -120.661 
-0.000746710      9.23582      176.646 
-0.000182227      4.46948     -74.1577 
-0.00134018      7.84826      127.334 
-0.000408481      9.33440     -119.805 
0.000554399      5.95427      156.019 
0.000749627      2.76102      42.3564 
0.000106691      7.61825      148.854 
0.000482809      8.07569      157.116 
0.000206281      11.5714      125.501 
0.00141363      8.03506      154.967 
0.00112484      12.6528      48.5222 
0.000813493      3.02038     -90.3843 
0.000885166      7.60091      148.775 
-0.000101330      8.67709      55.1363 
0.000649990      7.80780      22.7575 
0.000100319      6.82100     0.838353 
-0.000291041      10.5585      42.6988 
-0.000544085      11.2586      135.864 
0.000281983      3.69405      72.3453 
0.000617815      1.94809     -148.434 
0.000510642      9.20351      60.8728 
0.00104007      11.5873      125.445 
-0.00111457      6.07960     -9.27631 
-9.74933e-05      4.51751      54.5464 
-0.000986785      13.1877     -131.743 
0.000180320      10.8781     -34.3609 
-0.000356182      8.20329     -170.884 
0.000274588      6.80074     0.840851 
0.000510142      5.84797     -177.058 
-0.000421356      9.87088     -6.86786 
0.00210943      12.1444     -32.6944 
-0.000539375      9.37656      143.936 
-9.27282e-05      3.88522     -67.9232 
0.00122510      3.85867     -19.3758 
-0.000335091      4.52885      54.3453 
-0.000501492      8.38202      33.1239 
-0.000474393      9.35199     -119.743 
0.000170257      8.78786      171.891 
-0.000251359      12.9678     -132.373 
-9.09699e-05      8.64950      55.1725 
0.000361012      5.97805      175.587 
-0.000309725      9.11003     -120.617 
-0.000334800      9.32735      137.347 
-0.000321184      9.62780     -7.75813 
-0.000168720      10.5138      24.8585 
-0.000172743      10.3754     -104.171 
-8.75019e-05      6.70424     -161.567 
-0.000235899      10.5866      42.7020 
8.64937e-05      3.59711      138.154 
0.000213996      8.79074      171.760 
-0.000468339      10.7072      55.2708 
-0.00114899      10.6270      109.460 
0.000379952      6.06565     -150.136 
0.000853114      5.43757      119.770 
-0.000315338      9.86589     -30.0460 
0.000510218      9.19403      60.9790 
-0.00103656      9.52205      23.3871 
-0.000163245      9.89100     -6.85382 
-0.000758240      11.2585      136.007 
0.000648275      3.35712     -81.4388 
-8.27324e-05      10.5734      42.6244 
-0.000224639      11.2764      38.3746 
-0.000973863      10.0576     -70.4822 
0.000626272      8.04365      154.836 
-0.000240407      9.02068      31.3986 
-8.20403e-05      6.68503     -161.512 
0.000458806      13.8214      46.4651 
0.000378882      7.82649      22.7002 
-0.000293250      5.77059      45.5637 
-8.15818e-05      10.4932      53.9160 
0.000237387      4.06417      50.5967 
-0.000436697      10.3804     -104.279 
0.000304598      10.9743      44.5568 
-8.09839e-05      3.89259     -67.6571 
0.000148265      8.37442     -18.9545 
8.03453e-05      10.3557     -125.408 
0.000156498      3.36019     -81.0972 
-0.000368274      11.5418      39.2323 
7.89967e-05      13.0716      133.514 
7.87057e-05      6.80048     0.676491 
0.000270413      6.08660      147.619 
-0.000510387      6.05636     -9.11804 
0.000355577      9.61677      98.1282 
0.000379196      11.0820     -116.471 
-0.000146474      7.26497      131.990 
-7.69671e-05      6.76635      139.435 
0.000476318      9.59601      151.086 
0.000599131      10.6077     -124.707 
-0.000147113      8.77115     -46.4802 
-0.000289273      6.80413      133.686 
-0.000218686      9.00403      31.4633 
0.000266768      9.45767      3.51622 
0.000554684      8.30460     -162.043 
7.55401e-05      2.74741      42.0442 
0.000147917      10.6347      73.9513 
-0.000549486      12.4909     -139.090 
-0.000142628      10.4649      53.9403 
-0.000787767      9.93980     -143.015 
7.44663e-05      9.86173      127.916 
-0.000276047      8.87722      141.218 
0.000733238      4.07706      50.3767 
0.000213992      7.58424      148.699 
-0.000321332      9.60846     -7.77383 
-0.000535992      8.79200      69.2139 
7.29680e-05      8.63742     -159.676 
-0.000141319      9.21560      176.639 
0.000206136      11.0021     -137.872 
0.000326278      9.87772      127.844 
-0.000562930      8.39900      33.0483 
0.000419024      10.2667     -151.239 
-7.16639e-05      13.3207      140.238 
0.000311845      10.1256      18.1839 
-0.000264671      5.99226     -69.6883 
-0.000137893      13.0521      39.7145 
0.00108901      13.8496      46.4643 
-6.98370e-05      8.81312     -4.94798 
-0.000761112      12.5237     -41.6335 
0.000898559      7.34324      150.640 
0.000262419      10.6097      74.0262 
-6.93208e-05      3.88164     -67.2668 
6.91947e-05      10.2838     -151.292 
-0.000134082      11.2726      135.933 
0.000427145      11.6589     -133.195 
-0.000256412      4.81301      158.555 
-0.00109534      8.46258     -70.9658 
-0.000122331      9.85614     -29.9478 
-0.000135123      8.91672     -176.526 
0.000360577      8.70732     -35.3706 
-0.000451358      9.28911     -112.534 
-0.000188422      8.61589      93.4602 
0.000388210      3.35412     -152.673 
0.000531032      11.0910     -116.565 
-6.73759e-05      12.1648     -132.002 
0.000430172      5.39311      78.2304 
-0.000542798      9.01462      31.5731 
-0.000249483      10.6394      109.321 
0.000470695      9.08128      43.9287 
0.000521857      7.59439      148.573 
-0.000185775      12.9397     -132.370 
0.000252814      9.07942     -173.422 
6.65075e-05      10.9467      44.5556 
-0.000126671      9.29923      137.351 
-0.000462653      5.29178     -43.1613 
0.000453007      7.84449      22.6452 
0.000130672      5.50538      106.461 
-0.000239800      10.0563     -14.8648 
-0.00137985      8.93740     -176.409 
-0.000128589      8.83256     -4.93706 
-6.55840e-05      10.0773     -99.4806 
-0.000458553      13.0671      39.6598 
-0.000241778      13.3078      140.305 
-0.000183642      8.66817     -165.706 
0.000456658      10.2771      47.5212 
0.000581867      8.25616      48.0430 
6.43055e-05      8.65642     -159.722 
0.000122152      8.32528      129.540 
-0.000441062      9.34232     -119.639 
-0.000585357      11.3038      38.3907 
0.000298683      10.8951      146.834 
-0.000803480      10.1627     -93.8357 
-0.000331177      12.1629     -132.134 
-0.000176799      7.75434     -168.547 
-0.000178162      3.17441     -48.5745 
6.30785e-05      8.28477      48.0325 
6.30511e-05      5.96253      155.841 
0.000557948      5.49968      106.259 
6.22358e-05      13.0850      133.576 
-0.000282700      12.3783      141.295 
0.00107700      7.30752     -63.8559 
0.000598700      8.91804      12.6961 
-0.000120387      11.9603     -148.887 
-0.000241220      13.2515     -45.3074 
-0.00281726      14.3829     -134.607 
-0.000910750      10.9444      139.003 
-0.000554596      3.72553     -109.117 
-0.000669878      11.3206     -147.993 
-0.000177374      12.3631      141.239 
0.000219567      11.7255     -51.3705 
0.000324998      11.0171     -137.943 
0.000322912      7.57711      148.493 
0.000114968      11.5760      125.366 
-0.000371976      7.68983     -122.572 
0.000113987      3.72555      71.8570 
-0.000113773      8.89563      141.480 
