! Center RA: 12 21 31.69052,  Dec: +28 13 58.50019 (2000.0)
! Established model.
! Flux (Jy) Radius (mas)  Theta (deg)  Major FWHM (mas)  Axial ratio   Phi (deg) T \
! Freq (Hz)     SpecIndex
 0.0845903      0.00000      0.00000 
 0.0206187    0.0202604     -90.0000 
0.00675293    0.0202604      180.000 
0.00622607    0.0286526     -135.000 
0.00214106     0.101837      78.5245 
0.00230650    0.0998015      90.0000 
0.00708679     0.121759      80.4216 
0.00465224     0.120062      90.0000 
0.00276639     0.141777      81.7841 
0.00502656     0.260423      94.4620 
0.00321667     0.280627      94.1402 
0.000522425    0.0848966     -135.000 
0.000659481    0.0202604      0.00000 
0.00236042    0.0286526      45.0000 
0.00101426     0.113549     -135.000 
0.000398030     0.161111      82.7757 
0.00185220     0.141141     -135.000 
0.000675569     0.300838      93.8616 
6.85368e-05     0.164706      76.0271 
0.00134953     0.204262      78.7726 
0.000615078     0.220795      84.7351 
0.000961589     0.184432      77.5470 
0.000368741     0.259634      90.0000 
8.46375e-05     0.240977      85.1771 
0.000161818     0.320306      93.6266 
7.93675e-05     0.322129      97.0919 
0.000527607     0.342244      96.6731 
0.00113568     0.101837      101.476 
0.000900443    0.0828082      104.162 
0.000806508     0.128090     -128.817 
0.000977374     0.362375      96.3009 
0.000847557     0.169793     -135.000 
0.000116933    0.0633577     -108.650 
0.000228041     0.381773      95.9795 
0.00226568     0.687137      98.3513 
0.000925050    0.0397705     -90.0000 
0.00136448     0.667840      98.5944 
0.000211987     0.401929      95.6787 
0.000562004     0.424483      98.1301 
0.000595248     0.184676     -139.449 
0.00109705    0.0600310     -90.0000 
0.000222794     0.446997      100.348 
0.000168458     0.500328      106.288 
0.000748342    0.0802914      90.0000 
0.000161668     0.199903     -143.087 
0.000495171     0.531217      109.817 
3.96635e-05     0.189835      71.5651 
0.00123239     0.212689     -138.719 
0.000143014     0.170734      69.4145 
0.000364025     0.506166      80.8728 
0.000325625     0.557279      111.071 
0.000905212    0.0446338     -63.0042 
3.10237e-05     0.152624      66.8384 
0.000952218      3.10236      78.4754 
0.000384391      3.11841      78.9010 
3.00400e-05     0.134233      63.4349 
0.000402206     0.564587      112.919 
2.95389e-05     0.858779      102.105 
0.000697748     0.878599      101.828 
2.80680e-05     0.161670      60.2221 
0.00111473    0.0633577     -71.3505 
7.74766e-05     0.144435      56.2274 
0.000304232    0.0828082      75.8378 
0.000724371     0.427819      100.817 
0.000614898     0.526180      81.2228 
0.000426240      1.23978      100.215 
0.000674921      1.24353      101.134 
0.000354922     0.228306     -142.075 
8.68355e-05     0.128090      51.1829 
0.000565387     0.690371      100.015 
0.000965869      1.69826      105.006 
0.000141960      3.45311      71.7777 
9.76331e-05     0.329594     -165.900 
0.000251373    0.0633577      71.3505 
0.000180170     0.930615      118.197 
5.59337e-05     0.141141      45.0000 
5.78747e-05     0.874671      100.529 
0.000427663      3.45950      71.4589 
3.74195e-05     0.215843      68.1616 
0.000766609     0.894598      100.292 
0.000488105      3.67177      75.8161 
3.65902e-05     0.345185     -169.985 
0.000384063     0.226037     -135.000 
0.000848261      3.28921      82.3173 
0.000390820     0.365154     -170.538 
3.41170e-05      1.26268      100.963 
3.42108e-05     0.980215      91.1844 
9.56331e-05     0.234065      69.9384 
0.000159391      1.26654      101.829 
0.000150315    0.0720098      56.4755 
0.000592812     0.980812      92.3239 
4.59889e-05     0.128090      38.8171 
0.000266110     0.940357      119.286 
0.000290535     0.334882     -17.3387 
5.92897e-05      1.39984      111.807 
7.38473e-05     0.710331      99.7310 
8.70071e-05      1.39294      105.818 
0.000108694     0.572781      114.786 
0.000209221      3.08739      78.0346 
0.000446948     0.733822     -17.4344 
0.000127067     0.247514      75.9638 
0.000106965     0.707189      98.1129 
0.000238244      3.09853      78.8289 
1.39135e-05      1.40750      112.573 
5.02214e-05     0.144435      33.7726 
0.000125726      1.37425      111.325 
0.000109275      1.41730      106.391 
0.000181458     0.509625      78.7066 
0.000282437      3.46600      71.1414 
0.000328513     0.727252      97.8876 
0.000319931     0.384412     -171.016 
9.49838e-05    0.0562440      45.0000 
0.000327826     0.529508      79.1359 
7.10735e-05     0.240790     -138.411 
0.000373572      3.68671      76.1872 
2.39569e-05      1.70362      105.665 
0.000152133     0.599425      115.667 
5.61248e-05    0.0446338      63.0042 
0.000112238      1.67370      104.541 
5.06119e-05     0.967319      119.767 
0.000221581     0.240790     -131.589 
2.19743e-05      1.34124      110.057 
8.95225e-05     0.262662      81.2912 
0.000174174      1.77304      101.053 
1.10447e-05     0.161670      29.7779 
1.10085e-05      1.38175      112.108 
0.000214942     0.506146     -161.592 
3.15157e-05      1.34833      110.866 
3.14007e-05     0.621868      135.000 
0.000215845      1.41172      105.602 
0.000135906     0.718124      12.8600 
0.000378215     0.777872     -17.9805 
0.000272613      1.67870      105.185 
0.000345355      3.80867      79.0974 
0.000293262     0.636355      136.290 
0.000146620      1.30893      108.726 
0.000239512      1.79219      100.934 
0.000198905      3.07186      77.5866 
6.01596e-05     0.260826     -57.4530 
4.12264e-05      1.45003      114.456 
0.000281973     0.447333      26.6080 
0.000279925     0.401929     -174.321 
-0.000153735      3.20652      75.1800 
5.96748e-05     0.524694     -162.265 
0.000265207      3.47235      70.8368 
0.000128184     0.753070      10.7389 
4.08993e-05    0.0446338      26.9958 
0.000143180     0.625863      116.565 
8.46518e-06     0.279894      90.0000 
0.000180296     0.746582      97.6822 
-0.000245071      3.20241      69.5225 
0.000189063      1.28401      108.149 
0.000246604     0.512905     -159.444 
4.59617e-05     0.280627      85.8598 
-0.000238827      3.20139      75.5305 
7.85921e-06    0.0286526     -45.0000 
8.34275e-05     0.271820     -53.9843 
-0.000242397      3.36907      68.7673 
0.000124090      3.11457      79.2667 
-7.14721e-05      2.84818      81.9275 
0.000116691      1.47658      114.820 
4.82513e-05    0.0397705      0.00000 
4.98847e-05     0.665001      136.234 
0.000129167     0.716267      35.9215 
-0.000167848      1.13722      113.859 
0.000147109      3.47906      70.5216 
-0.000120170      3.15108      85.2738 
6.71655e-06     0.404436      98.5360 
2.58515e-05     0.766666      97.4798 
-5.82392e-05      3.20929      69.1962 
2.59856e-05     0.635182      118.200 
-1.95165e-05      2.84540      82.3315 
-3.21696e-05      3.61339      80.1230 
-1.28288e-05     0.581411     -3.92229 
-1.26869e-05     0.580403     -2.00046 
0.00114623      4.55984     -53.3771 
0.000950740      6.46382     -34.9206 
-0.000922973      9.37505     -64.4728 
-0.000998537      8.62762      29.8920 
0.000259347      9.58520     -13.5141 
0.000502368      9.22341     -85.8945 
0.000460335      8.50145      19.3721 
-0.000284473      1.10170     -93.1235 
-0.000594233      6.90216      1.49515 
6.19847e-05      7.56039    -0.454945 
-0.000298670      9.32838     -87.5427 
-0.000371922      9.73749     -65.4870 
-0.000687622      10.6327     -36.2019 
0.000228451      10.9569      42.4854 
0.000728237      7.54013    -0.456167 
0.000409797      9.56623     -13.5414 
-0.000226997      12.4298      130.301 
-0.000360347      4.02943     -38.3532 
0.000223949      6.45225     -34.7731 
0.000164229      6.44775      2.84176 
-0.000157087      6.02539     -51.8784 
0.000410585      5.21031      75.3253 
5.68157e-05      9.64529      169.366 
-0.000459753      9.32754     -87.6670 
-0.000352881      4.82536      60.9956 
-0.000216548      7.20706     -92.5422 
-0.000303901      10.4840      105.148 
-0.000428219      11.3605      129.070 
0.000255013      9.64157      169.484 
0.000301479      9.65227     -58.3846 
0.000155545      8.86795     -140.676 
5.47792e-05      4.53210     -53.4356 
-0.000347256      12.9855      47.9348 
5.39772e-05      10.1962     -76.1530 
0.000342074      9.61738     -7.28859 
0.000105555      11.1291     -141.419 
0.000150139      3.90477      127.920 
-0.000433358      12.4429      130.372 
0.000337940      4.54420     -53.2304 
-9.67135e-05      8.31150     -17.6481 
0.000102884      8.95891     -176.288 
-0.000288835      9.84879     -87.5546 
-0.000151278      6.10294      157.045 
-0.000144418      9.44131     -23.4701 
0.000197431      9.53152      71.9060 
-0.000286160      9.77583     -136.577 
0.000283133      9.98782      174.369 
-0.000100759      9.53772      157.953 
0.000192818      10.3115      69.2122 
9.87114e-05      10.3053     -96.4637 
0.000141979      10.9713      42.4166 
0.000326861      11.1255     -141.276 
-0.000190270      7.20622     -92.3872 
-9.62435e-05      8.65386     -112.418 
0.000233247      5.20252     -113.811 
-8.55388e-05      9.45921     -23.4230 
0.000183492      8.97913     -176.296 
0.000232380      6.01479     -94.0062 
-0.000185736      9.55581      157.997 
-9.35780e-05      10.7665     -49.4433 
-9.14800e-05      13.1962      137.826 
9.30080e-05      10.5403      151.928 
0.000137062      11.9932      124.193 
-0.000226824      9.01355      70.5589 
9.23513e-05      7.07813      140.735 
0.000179258      9.82461     -25.0521 
4.66470e-05      2.47934      33.8199 
-9.11718e-05      12.9191      133.056 
4.64475e-05      3.86650      138.147 
-0.000135536      5.52878     -127.949 
-9.02837e-05      6.08498      156.973 
-4.61772e-05      9.38380     -64.3611 
-0.000134204      7.83662     -96.8909 
-0.000133807      11.7043      58.1278 
8.92037e-05      9.84440      178.253 
8.94681e-05      10.2992      114.924 
-4.55081e-05      4.14321     -149.227 
-4.53997e-05      7.66028      47.8547 
-8.85287e-05      11.8660      134.385 
4.49762e-05      10.3030     -96.3517 
-0.000359476      11.3728      129.146 
8.83115e-05      6.09436      28.4173 
4.47173e-05      9.53760      71.7946 
4.44754e-05      6.44681      2.66858 
-0.000153850      11.4028     -151.276 
-4.42310e-05      9.62003      133.483 
4.40866e-05      4.37374     -116.921 
-4.40644e-05      7.41707     -97.1250 
-0.000287126      11.6235     -151.757 
-0.000160572      13.0000      47.9924 
-4.36015e-05      5.24524     -102.551 
-0.000575337      6.52110      19.1584 
-0.000369632      13.2370      135.122 
-0.000268766      6.53364      18.9323 
-0.000399969      9.35960     -23.5520 
-0.000366083      9.38628     -23.6160 
0.000308569      9.26329      134.915 
-0.000313679      11.5433     -48.1620 
0.000286384      5.93589      55.2934 
0.000152317      9.62210      138.623 
0.000532612      6.74264      72.2123 
-0.000404434      9.48601     -40.8107 
0.000151337      9.55046     -4.56513 
-0.000149107      4.46894     -49.5354 
0.000461818      4.97922     -19.9588 
-0.000221197      11.1538      116.520 
4.84625e-05      10.5309     -138.773 
0.000472633      8.27369      29.2292 
0.000203202      10.1079     -78.3547 
-0.000335455      11.3842      120.979 
-0.000258110      11.5714     -48.1517 
-4.66317e-05      8.81260     -136.197 
4.63860e-05      8.88590     -96.9798 
0.000207421      9.89779      71.3824 
0.000207044      10.5176     -138.856 
0.000352461      9.48977      155.865 
-0.000281462      11.4109     -151.414 
-4.51907e-05      8.81668     -137.114 
0.000259853      9.53184     -4.69172 
-8.75113e-05      9.77118      175.423 
-0.000117482      9.10255      123.623 
-0.000115296      11.3857     -151.229 
-0.000656294      8.92549      13.4766 
-0.000233251      3.93180      143.482 
-0.000194840      7.04209     -140.066 
0.000211754      13.2999      130.854 
-0.000270713      11.8507     -120.979 
4.32091e-05      8.90128     -96.7098 
-4.30987e-05      10.8482      68.0198 
-0.000120355      9.06323     -74.6463 
-0.000122417      11.0842      152.372 
0.000246654      8.91818      108.840 
0.000342312      10.5541      116.565 
-0.000369729      10.0826     -93.8663 
-8.11474e-05      10.2568      106.775 
-0.000161507      10.8555      67.9243 
0.000295137      14.0717      135.173 
0.000115507      7.69560     -174.483 
-4.08351e-05      10.1531     -149.191 
-4.07772e-05      5.87481      34.1772 
-7.66539e-05      8.98316      139.788 
-4.02267e-05      10.6393     -125.513 
-0.000104428      13.2232      135.062 
-4.00347e-05      5.06679     -65.7618 
0.000237796      10.0060      160.988 
0.000142966      7.79349     -135.936 
-0.000274782      10.8375      67.8855 
-0.000357828      8.91950      70.3455 
-3.95904e-05      9.07711     -103.116 
7.70607e-05      5.91986      55.1859 
-0.000102489      4.48163     -49.3456 
-6.89316e-05      7.43971     -97.2605 
-0.000332671      12.7080     -37.0682 
-3.85710e-05      6.69196      17.5694 
0.000108319      5.11262     -14.0322 
-0.000247093      10.1698     -149.247 
-0.000290548      13.1831      137.888 
-7.24849e-05      10.6275     -125.424 
-0.000143615      11.3568      120.948 
-0.000198926      11.1015      152.418 
-0.000108084      6.94367      128.687 
-0.000106711      10.2624      106.879 
-0.000197782      11.1176      116.380 
-3.71417e-05      4.37843      66.0136 
3.71013e-05      7.48212     -131.316 
-0.000106338      9.91194      130.828 
-3.70388e-05      9.30812      126.526 
3.69691e-05      7.61136     -166.476 
-3.67981e-05      9.51493      59.2827 
-0.000163048      12.0813      146.548 
-3.62671e-05      7.43718     -97.1057 
-7.09429e-05      5.07514     -65.5532 
6.97470e-05      7.71562      171.955 
-6.59227e-05      7.37485     -161.663 
-0.000428728      10.0212     -90.9139 
6.98992e-05      5.90874      55.3412 
-3.55409e-05      6.51448      18.9901 
0.000175583      7.60544     -106.815 
-5.95474e-05      9.06647      151.399 
-6.92477e-05      9.50460      59.3877 
3.51555e-05      9.96557      158.946 
-6.68843e-05      11.8856     -142.109 
-6.67666e-05      5.85806      34.2885 
9.81526e-05      7.46925     -131.204 
-0.000130597      9.83490     -108.252 
0.000162328      9.95739      146.054 
0.000283933      8.05854      15.1077 
0.000223711      6.82992      158.167 
-0.000463996      12.3655      130.802 
3.45546e-05      7.73854      171.827 
0.000619231      11.1529      156.654 
-3.44932e-05      9.23575     -107.256 
0.000124309      9.61983      138.456 
-3.42361e-05      9.32019      126.626 
3.40624e-05      7.20888     -16.2731 
-6.63164e-05      7.39337     -161.710 
0.000151112      9.63591     -34.5143 
0.000740076      9.94667      158.904 
9.67851e-05      6.73671      72.3703 
-0.000201457      6.98437      128.838 
-3.33400e-05      12.6477     -139.939 
-3.32893e-05      8.39209      8.49454 
-0.000342853      9.81059     -38.2943 
0.000312719      13.0269      133.943 
-0.000175668      13.5910     -45.1790 
-0.000168946      6.67478      58.9799 
-3.30946e-05      9.06861     -74.5228 
-0.000285333      8.59041      103.874 
0.000187260      7.22833     -16.2281 
-0.000155236      11.6000     -48.1439 
3.28756e-05      9.89158      71.4895 
-9.38458e-05      8.16682      116.000 
6.38217e-05      12.5294     -144.812 
-0.000123603      6.17721      65.9259 
-0.000172043      3.61339     -170.123 
0.000276393      7.73569      171.976 
-0.000508301      9.58239      78.8062 
-3.21011e-05      6.95588      128.812 
-0.000205662      11.3946      121.067 
0.000281908      12.5294      144.812 
-0.000171105      8.92165     -59.4123 
-6.22641e-05      12.6632     -139.998 
-0.000292795      12.0016      54.0838 
-0.000118182      8.37205      8.51502 
-8.98204e-05      11.8403     -120.895 
-0.000111692      9.89871      130.739 
6.15799e-05      7.77874     -66.9966 
0.000193129      8.25601      29.2979 
-3.10696e-05      9.76703     -169.379 
-3.10400e-05      6.33949      94.5215 
-0.000190703      9.40416     -23.5684 
0.000250250      7.54055      179.242 
-0.000142901      12.6349     -141.876 
0.000705776      9.82373      42.5266 
5.55419e-05      8.78154      52.2165 
-5.85503e-05      11.1284     -114.076 
0.000111520      10.3132     -153.633 
2.98228e-05      10.1799      98.8152 
-0.000383752      8.85860     -42.9851 
5.88465e-05      12.2560     -39.7687 
-5.85177e-05      10.1238      9.66479 
-5.71007e-05      6.36131      94.6890 
2.91035e-05      9.68803     -85.6200 
8.37598e-05      10.9622      136.109 
-8.41742e-05      8.91736      163.717 
-5.32419e-05      13.8758      46.1087 
-2.89017e-05      9.78695     -169.401 
-0.000108480      9.81566     -108.290 
-0.000196406      10.3026      97.2472 
-5.55768e-05      8.99864      139.871 
-8.06857e-05      11.8385     -125.650 
0.000573966      12.2710     -39.7105 
-0.000128793      11.0908      116.336 
0.000325636      9.90427     -71.2713 
-0.000106892      8.13973      115.934 
2.86047e-05      7.24706     -16.1850 
-0.000156153      6.16928      66.0913 
0.000157687      11.3091      154.884 
-0.000157105      11.3952     -63.9749 
-2.83474e-05      13.2513      135.060 
5.55730e-05      8.76915      52.3211 
-0.000131834      11.6416     -48.0647 
2.82538e-05      10.1769      98.7025 
-0.000134700      12.6641     -37.1035 
2.81468e-05      10.2951     -153.582 
-0.000131894      12.0219     -47.8993 
2.80271e-05      5.92844     -81.2709 
5.42092e-05      7.45592     -131.087 
0.000153626      9.52636     -70.4989 
7.41970e-05      5.89209      55.2292 
-0.000557524      10.1206      9.55591 
0.000421900      13.3132      130.920 
-5.39436e-05      12.9478      133.060 
-5.35734e-05      8.84252      123.186 
-0.000126809      10.9884     -53.7350 
-0.000193631      9.36837      118.150 
-5.39361e-05      13.1846      46.4759 
0.000195007      13.0410      134.007 
8.04648e-05      7.40625     -15.9908 
0.000154384      12.5440      135.065 
0.000173530      12.5134     -144.760 
0.000239040      12.5831     -125.686 
-2.71538e-05      11.2381     -150.696 
-4.97602e-05      10.1006      9.57499 
2.70506e-05      6.66500     -132.933 
-0.000188273      7.97303      24.7657 
-0.000100363      9.24967      23.8492 
-0.000101373      3.12343     -61.2984 
-5.22272e-05      10.2683      106.988 
-0.000498155      12.6919     -37.1233 
-2.67563e-05      12.6782     -140.054 
-5.24206e-05      12.3850      39.0366 
0.000164728      12.2805      144.678 
-0.000178685      6.88455      16.5407 
7.29787e-05      10.2202     -20.3842 
-5.17520e-05      7.79123     -26.0394 
0.000141684      10.0424      167.928 
2.63871e-05      8.05328      14.9686 
-0.000468616      10.8182     -125.745 
-2.63172e-05      4.49485     -49.1497 
5.18459e-05      7.10045     -6.14561 
-2.61670e-05      12.4007      38.9776 
9.82033e-05      10.3888     -102.566 
2.61492e-05      7.95248      167.360 
-7.38852e-05      7.00654      132.574 
0.000188582      10.9336      136.112 
-7.62654e-05      11.4051      121.154 
-0.000172736      10.0209     -90.8023 
2.60138e-05      7.89003     -164.415 
0.000143963      5.73408      101.466 
-9.89977e-05      11.2204     -150.646 
-0.000119678      6.42418     -57.1972 
0.000121226      10.1559     -126.915 
-4.97326e-05      12.0982      146.601 
0.000139535      10.1478     -70.0643 
0.000210398      11.0636     -141.018 
-4.96055e-05      7.86378     -37.2482 
-5.01118e-05      10.8068     -125.661 
-9.76065e-05      10.1893      16.2995 
-0.000139019      6.35969      94.5071 
0.000290360      7.90954     -164.454 
0.000116659      8.60979     -32.7676 
-4.98652e-05      8.92633      70.2231 
-2.51567e-05      3.33303     -18.5492 
-7.25458e-05      8.14184     -42.1124 
-2.51198e-05      1.74027      179.333 
-0.000222214      9.23466      86.7719 
2.49908e-05      7.26652     -16.1405 
