! Center RA: 12 21 31.69052,  Dec: +28 13 58.50011 (2000.0)
! Established model.
! Flux (Jy) Radius (mas)  Theta (deg)  Major FWHM (mas)  Axial ratio   Phi (deg) T \
! Freq (Hz)     SpecIndex
 0.0731242    0.0446338     -63.0042 
 0.0166226    0.0600310     -90.0000 
0.00122069    0.0633577      18.6495 
0.00423474    0.0720098      33.5245 
0.000801117    0.0397705      0.00000 
0.00129755    0.0446338      26.9958 
0.000509103    0.0286526     -45.0000 
0.00170811    0.0562440      45.0000 
0.00440936     0.201375      95.7743 
0.00539588    0.0720098      56.4755 
0.00541325     0.220795      95.2649 
0.00902854    0.0828082      75.8378 
0.00625296    0.0802914     -90.0000 
0.00194091     0.240124      90.0000 
0.000370963    0.0633577      71.3505 
0.000223845     0.240977      94.8229 
0.00227495     0.260423      85.5380 
0.00159752     0.259634      90.0000 
0.000334058     0.280627      85.8598 
0.00176020    0.0998015      90.0000 
0.000815992     0.279894      90.0000 
0.000470326     0.300155      90.0000 
0.000668217     0.184432      102.453 
0.000354767     0.319665      90.0000 
8.58817e-05     0.340529      93.4109 
0.00117167     0.360755      93.2195 
0.000833021     0.204262      101.227 
0.000978208     0.380236      93.0544 
0.00281139    0.0998015     -90.0000 
0.000514728     0.223431      100.253 
6.00969e-05     0.381773      95.9795 
0.00105402     0.401929      95.6787 
0.000159458     0.209153      106.680 
0.000619745     0.227911      105.272 
0.000182516     0.422095      95.4065 
0.000423040     0.420705      92.7603 
0.000578784     0.710331      99.7310 
0.000350784     0.730308      99.4623 
0.000509703     0.440193      92.6380 
0.000213631     0.234065      110.062 
0.000210749     0.714035      101.334 
0.000159009     0.260423      94.4620 
0.00101775     0.523472      96.5851 
0.000682493     0.280627      94.1402 
0.000156592     0.776764      101.874 
0.000202439     0.795867      101.585 
0.000191724     0.819935      102.688 
7.45110e-05     0.882975      103.115 
7.23712e-05     0.902718      102.823 
3.54965e-05     0.921752      102.554 
0.000414240     0.756949      102.190 
0.000170681     0.941538      102.286 
0.000294065     0.101837     -78.5245 
0.000128407     0.961344      102.029 
0.000182700     0.501338      94.5500 
0.000122941     0.980435      101.792 
6.04502e-05     0.781185      103.329 
0.000604965     0.121759     -80.4216 
2.97005e-05      1.00437      102.645 
2.94469e-05     0.907248      104.025 
0.000421511     0.500168      92.3215 
8.66862e-05      1.02414      102.397 
2.84248e-05     0.887605      104.342 
5.61035e-05      1.04767      103.250 
2.77722e-05     0.761484      103.680 
0.000226642     0.912370      105.259 
0.000107991      1.07195      104.017 
0.000262806     0.737890      102.510 
0.000152959      1.09662      104.787 
0.000115714     0.892839      105.601 
0.000598202     0.480248      90.0000 
4.87184e-05      1.10196      105.806 
0.000510034      1.76251      99.1375 
0.000486887      1.12613      106.491 
0.00109095      1.75941      98.4861 
0.000801074      1.42619      104.628 
0.000340377     0.718124      102.860 
0.000333248    0.0828082      14.1622 
0.000492492     0.126477     -71.6725 
0.000696548      2.55229      113.550 
8.22010e-05     0.917698      106.434 
0.000173893     0.698386      103.230 
0.000130452     0.898283      106.800 
3.83966e-05      2.57898      113.783 
0.000144548      2.82674      112.030 
0.000150685     0.262662      98.7088 
3.63490e-05     0.679409      103.606 
0.000117082     0.659734      104.020 
0.000203940      1.15139      107.171 
0.000159528     0.282706      98.0871 
3.50491e-05      2.80797      112.185 
0.000116296     0.923634      107.640 
0.000392539      2.54455      113.148 
0.000144411      2.83412      112.396 
0.000156221    0.0998015      0.00000 
0.000471948      1.78178      99.0379 
0.000429355     0.461703      85.0585 
0.000130817      2.86540      109.569 
0.000103915     0.904347      108.029 
0.000278356      1.15753      108.130 
3.05036e-05     0.145849     -74.1761 
0.000425987      1.43125      105.384 
0.000100420      2.84190      112.773 
9.82543e-05     0.929974      108.830 
0.000518883     0.152624     -66.8384 
4.19295e-05     0.640096      104.460 
0.000161894     0.266484      103.019 
2.85324e-05      2.51104      108.576 
0.000543833     0.120062      0.00000 
1.39837e-05      2.50466      108.136 
0.000143255      2.47937      107.854 
2.72429e-05      1.10096      114.696 
0.000103990      2.84980      113.149 
5.18636e-05      1.13565      116.108 
6.04197e-05      2.85893      109.201 
0.000100008      2.25592      114.067 
2.56613e-05      3.12651      106.352 
1.28765e-05      3.20705      107.413 
4.94627e-05      3.23248      107.648 
0.000171607     0.805984      113.367 
0.000719793      1.99645      100.964 
0.000141048      1.17200      117.451 
7.15470e-05      3.12086      105.995 
0.000105464      2.85753      113.509 
7.84754e-05     0.271765      107.184 
2.36771e-05     0.733911      101.023 
0.000122634      2.47323      107.407 
1.19004e-05     0.621223      104.909 
0.000192702      2.22987      113.796 
4.54158e-05      3.25724      107.884 
5.46181e-05      1.18292      108.722 
0.000241712     0.969949      98.3182 
4.45117e-05      3.11534      105.636 
3.25496e-05     0.954085      123.028 
0.000239672      2.86567      113.880 
3.13574e-05     0.626742      106.699 
0.000288424      1.20859      118.681 
4.16446e-05     0.965278      124.036 
4.20397e-05      3.30811      108.324 
0.000191945     0.443806      82.2261 
4.06997e-05      2.85233      108.816 
6.21535e-05      3.09060      105.389 
1.05984e-05     0.282706      81.9129 
5.52301e-05     0.101837      11.4755 
0.000106430     0.727252      97.8876 
1.03451e-05     0.278155      111.026 
0.000122878      2.44221      106.659 
2.98320e-05     0.286260      77.8948 
0.000152637      1.54229      99.6915 
9.39191e-05     0.260038      112.569 
1.01025e-05      3.36503      109.081 
1.98643e-05      3.22140      110.351 
3.88824e-05      3.39012      109.297 
5.76748e-05      3.08529      105.027 
6.64557e-05      2.58721      114.194 
0.000194127      1.00456      125.269 
0.000433645     0.722868      131.634 
7.97944e-05      3.22823      110.676 
0.000171331      2.20348      113.544 
9.54283e-06     0.632861      108.456 
2.76045e-05     0.291183      73.9938 
3.67417e-05      3.41571      109.494 
0.000228799      2.35739      104.753 
0.000236486      3.92129      114.078 
0.000131761      2.84586      108.430 
1.99389e-05      3.09970      104.568 
0.000183745      3.08010      104.663 
8.79516e-05      1.20797      109.335 
0.000162031      2.56045      113.966 
6.82501e-05      3.42252      109.814 
1.75698e-05      3.09485      104.218 
0.000102972     0.724832      96.3598 
4.11293e-05     0.286050      65.1829 
2.57232e-05      3.08994      103.854 
3.03012e-05     0.607364      107.248 
0.000132407     0.268467      116.565 
0.000125316      2.87393      114.250 
1.67084e-05      3.08532      103.502 
1.63990e-05      1.01639      126.202 
0.000316539      2.82664      108.560 
2.43532e-05      3.09588      102.685 
4.77678e-05      1.24556      132.387 
0.000124584      3.44847      110.016 
0.000101622      3.23544      111.012 
4.65062e-05      3.09165      102.333 
0.000232876      1.56153      99.5710 
0.000310407      1.24505      119.856 
3.66596e-05      2.46746      106.975 
1.53363e-05      2.24525      109.240 
2.26474e-05      1.25931      133.068 
0.000106325     0.990000      98.1485 
0.000257557     0.304558      66.7829 
7.13202e-05      2.17684      113.269 
0.000144798     0.427819      79.1828 
7.04151e-05      3.08739      101.965 
2.18374e-05      2.83682      118.192 
0.000149319      1.28794      133.111 
0.000221775      3.06122      104.755 
7.24166e-06      2.36967      111.805 
5.84350e-05      2.37699      112.241 
7.04711e-06      2.59527      114.587 
0.000146674     0.184676     -40.5508 
0.000181179      2.84609      118.538 
0.000306303      3.91337      113.817 
8.75882e-05     0.722868      94.7636 
0.000426513     0.250509      118.638 
0.000209512      2.56875      114.379 
1.32938e-05      1.45079      105.172 
9.27915e-05      2.15893      113.473 
4.38754e-05      2.49257      107.268 
5.05606e-05      3.55427      108.029 
0.000102688      3.08325      101.597 
9.16434e-05      3.46681      109.906 
0.000267302      2.32846      103.911 
0.000108448      2.89173      114.091 
5.19179e-05      3.21654      111.141 
2.75866e-05     0.613676      109.055 
0.000145902      3.56059      108.339 
6.81909e-05      2.38473      112.692 
4.70219e-05     0.107434      21.7271 
0.000149944      2.51121      107.135 
0.000106263      2.02026      101.418 
5.72891e-06     0.824622      112.808 
6.74617e-05     0.987333      96.9846 
1.66098e-05      2.13230      113.191 
0.000166572      1.30136      133.738 
0.000368229      2.14036      113.689 
4.13677e-05     0.992999      124.315 
0.000130276     0.721469      93.1600 
7.07617e-05      3.07939      101.241 
0.000339233     0.199903     -36.9129 
7.38675e-05     0.584228      128.062 
0.000135956      1.20142      108.424 
0.000171479      2.02437      101.981 
7.33811e-05      3.22390      111.477 
9.99112e-06     0.912809      118.798 
0.000101667      2.00040      101.533 
9.15758e-05      3.47350      110.208 
3.62091e-05     0.750414      131.757 
1.75921e-05      1.03798      115.064 
3.92033e-05     0.985074      95.8148 
2.64847e-05     0.982133      123.374 
7.13977e-05      3.07550      100.871 
6.55033e-05     0.100252      36.7841 
1.67147e-05     0.594563      109.693 
5.66824e-05      2.39262      113.140 
9.00382e-06      1.44581      104.426 
0.000154268      2.89975      114.443 
4.31036e-06      3.96306      115.396 
0.000192940      2.87292      118.707 
0.000176401      3.56678      108.637 
9.04953e-05     0.764056      132.891 
1.87299e-05      2.73222      109.226 
8.23188e-06      3.94476      115.522 
7.52533e-05     0.971135      122.376 
0.000157269     0.568413      129.321 
3.07523e-05     0.983289      94.6838 
4.56861e-05      3.95354      115.787 
7.55167e-06      1.01966      115.547 
3.66950e-05     0.141777     -98.2159 
4.54293e-05      3.90523      113.546 
2.54142e-05      3.07175      100.500 
2.19193e-05      1.32946      133.788 
7.28666e-05     0.601418      111.443 
5.41033e-06     0.431906      76.6398 
0.000147743     0.981842      93.5053 
0.000102694     0.412220      75.9891 
1.38112e-05      2.37400      113.332 
2.94463e-05      3.20505      111.610 
9.13072e-05      1.34356      134.412 
1.67856e-05      3.05631      104.401 
6.74390e-06      1.04672      116.069 
2.32698e-05      3.04139      99.4577 
0.000118906      1.25526      120.658 
5.93592e-05      1.58496      100.171 
8.42405e-05      2.40035      113.568 
2.15258e-05      1.02856      116.565 
0.000133968      3.01206      98.3945 
5.25727e-05      3.89719      113.272 
7.35685e-05      2.50553      106.709 
3.72737e-05      3.45520      110.320 
4.29060e-05      3.96239      116.051 
9.42960e-05     0.116465      31.0271 
3.60739e-05      2.71380      109.362 
3.07224e-05      3.18692      111.739 
6.00590e-05     0.987667      121.770 
2.75454e-05      2.57686      114.774 
8.80865e-05      1.34711      139.201 
8.57541e-05      2.32384      103.444 
2.88555e-05     0.740950      93.0768 
4.77558e-05     0.777987      133.984 
1.18930e-05      1.37169      134.402 
4.57641e-05      3.88952      113.008 
7.29341e-05      3.57330      108.945 
1.62305e-05      3.11491      102.607 
4.61926e-05      3.97100      116.304 
2.91332e-05      1.40034      134.414 
2.73972e-05      1.58151      99.4489 
3.82311e-05      1.41049      108.165 
2.30493e-05      3.46229      110.635 
2.49616e-05      2.55099      114.560 
2.63724e-05      3.16811      111.874 
2.26074e-05     0.156126     -129.735 
1.11242e-05      3.86297      112.849 
2.62486e-05      2.18237      116.089 
2.42807e-05      2.40853      114.010 
2.78341e-05     0.998483      122.759 
2.58263e-05      1.41459      135.000 
1.51761e-05     0.791661      135.000 
2.65617e-05     0.260826      122.547 
4.99718e-06      1.75664      97.8567 
-6.12584e-05     0.100252      143.216 
4.87916e-06      2.92045      103.461 
8.00461e-06      3.45029      111.056 
3.22202e-06      1.44089      103.645 
-4.74384e-06      3.72442      114.091 
1.58322e-06      3.98002      116.565 
1.57328e-06      2.00455      102.101 
-0.000401552      12.0786     -137.888 
0.000581580      8.60595      78.7420 
-0.000454215      10.0986      141.835 
-6.09367e-05      7.95504      124.450 
-0.000190730      5.39317     -26.6613 
-0.000385696      2.31449     -170.049 
-0.000113909      10.1200     -179.545 
-0.000187606      7.94360      124.330 
-0.000258555      9.57381     -38.8085 
0.000140112      8.88524      167.653 
5.73172e-05      8.36351     -1.64524 
2.90050e-05      7.37211     -80.9461 
0.000229310      5.83080     -157.832 
0.000251399      8.70309     -116.329 
0.000254513      2.63764      40.6968 
0.000201648      7.36894     -81.1017 
0.000248512      8.86126     -88.9665 
-8.13472e-05      8.86399      12.9092 
0.000242702      7.10758     -125.031 
-8.04032e-05      10.4249     -118.284 
-0.000147459      9.25401      23.2950 
0.000193447      3.96053     -95.7959 
-0.000290256      12.1880     -38.3375 
-7.83951e-05      11.2160      123.805 
0.000101951      10.9353     -119.473 
0.000167739      10.7509     -133.643 
0.000147253      9.64692     -55.8167 
5.16116e-05      8.38376     -1.64126 
-0.000211342      10.1199     -179.660 
0.000119840      9.98384     -135.000 
0.000213448      8.88093      167.780 
-0.000213826      12.0772     -137.752 
0.000121481      9.74975     -105.833 
-6.96148e-05      8.33630      10.3662 
-7.21508e-05      8.89672     -83.5445 
-0.000119477      7.51085     -74.5586 
-4.92210e-05      7.87948      133.665 
-0.000118201      8.84424      12.9385 
-5.04211e-05      10.3189      137.434 
-0.000117432      10.4071     -118.337 
-0.000118152      9.14376     -122.404 
-0.000184421      6.62909     -123.929 
6.92806e-05      8.19292      19.9818 
-0.000137373      9.08572     -100.271 
-7.13341e-05      10.2903      137.441 
-0.000137230      9.36048      18.8242 
-4.74343e-05      11.1885      123.774 
-9.14480e-05      11.7641      127.124 
-0.000158033      12.1492     -134.267 
-6.79575e-05      9.52156      6.51173 
4.57853e-05      8.13908     -5.64016 
4.50730e-05      3.67712     -20.6984 
-2.34400e-05      6.70128     -88.9734 
6.65934e-05      7.49850      21.4298 
-8.90541e-05      10.3052      137.517 
-4.51924e-05      7.61655     -13.0505 
-4.53519e-05      9.64531     -135.000 
4.48701e-05      6.99140     -125.097 
2.30832e-05      7.18478      37.7663 
-6.68717e-05      10.1438     -98.9627 
-4.52566e-05      3.19633     -136.018 
6.66111e-05      8.60690      92.2635 
-4.48982e-05      4.49083     -62.4073 
-4.49306e-05      6.43295     -72.6324 
4.47026e-05      10.5368      57.6387 
-4.42849e-05      9.24893      51.3206 
4.42698e-05      5.57464     -81.9604 
-6.61673e-05      5.32118     -178.925 
-2.26890e-05      8.21961      172.029 
-2.25946e-05      1.87487     -78.9239 
-6.65506e-05      9.39100      123.624 
-6.58464e-05      9.71437     -122.643 
2.24983e-05      10.9273     -119.614 
-2.24742e-05      2.38965     -51.1182 
-6.55864e-05      12.3006     -51.0045 
-6.57380e-05      4.79388     -63.7558 
-2.24004e-05      11.0550     -50.5803 
-4.39126e-05      9.23799     -84.7849 
2.22288e-05      7.93437      41.5264 
-2.21548e-05      7.01546     -31.8319 
-2.19281e-05      6.68069     -89.1440 
2.18575e-05      8.52159     -5.65487 
-2.18575e-05      10.3293      41.4659 
4.30501e-05      9.52423      56.4752 
-2.17566e-05      8.71549      96.4562 
-4.28644e-05      12.2119      129.817 
-4.28999e-05      8.67098     -39.1980 
-2.16435e-05      9.75928     -44.0031 
-2.14708e-05      11.4339      133.016 
2.12566e-05      9.88336     -26.3063 
2.12226e-05      9.76374     -105.687 
-2.11433e-05      9.15143      168.272 
-0.000213973      1.81377      165.970 
-5.14981e-05      1.83343      166.123 
-0.000166613      8.55999     -36.7353 
0.000288701      3.95170     -4.35615 
-0.000267595      10.1164     -125.262 
5.55843e-05      12.6978     -41.2984 
-0.000276759      12.4048     -124.688 
-0.000152756      13.9607      135.987 
4.13586e-05      4.47591      118.860 
5.92298e-05      7.65157      48.6021 
7.65149e-05      6.11006     -17.7251 
5.85123e-05      9.78325      137.733 
0.000191135      12.7259     -41.3042 
-2.02692e-05      1.80914      166.569 
2.00944e-05      9.45163      133.285 
-0.000232323      12.7283      131.178 
8.81648e-05      4.50307      118.953 
0.000112389      9.46502      133.371 
-0.000137688      9.10254      124.073 
-8.39057e-05      11.9829      130.736 
-5.40709e-05      1.81209      169.188 
3.54214e-05      8.54324      168.114 
8.44842e-05      11.0601     -140.062 
-6.09893e-05      9.97397      131.584 
-6.88641e-05      12.7692      131.255 
6.63359e-05      12.7476      136.717 
0.000139665      3.95040      105.863 
0.000142737      10.1438     -130.443 
-4.81200e-05      12.7558      131.186 
-6.42487e-05      4.29770      159.284 
3.22628e-05      9.04190      34.1833 
6.69174e-05      11.4045     -36.2275 
-0.000108624      12.3753     -141.759 
-0.000149592      5.62237      51.5026 
6.53321e-05      7.66335      48.2826 
1.75455e-05      6.86332     -132.993 
-4.80785e-05      11.9961      130.810 
-1.72255e-05      3.76294     -136.293 
3.33987e-05      9.82637      137.807 
1.68187e-05      2.04965      28.5636 
6.15997e-05      6.08460     -17.6015 
-0.000208635      9.31598     -176.675 
-6.14644e-05      8.51600     -36.7861 
-7.49335e-05      9.55712     -121.829 
4.66365e-05      8.89242      8.27711 
-7.49975e-05      10.3450     -61.6002 
-1.65169e-05      6.07606     -94.1501 
5.58634e-05      9.57044      75.8494 
-9.68716e-05      3.76240     -135.857 
5.81141e-05      11.2101      115.239 
-7.20651e-05      9.94537      131.574 
-1.61584e-05      1.79485      165.819 
9.91523e-05      6.44942     -133.996 
-1.60742e-05      13.9747      136.042 
8.24698e-05      7.32932     -9.89822 
-7.24709e-05      12.0094      133.853 
3.09995e-05      8.80650     -144.614 
-3.07574e-05      3.62812      36.9291 
3.05811e-05      11.0017     -119.875 
3.06466e-05      9.18580      1.99429 
1.55147e-05      9.90521      76.2164 
-2.87510e-05      6.22256     -91.6585 
5.51701e-05      12.5752      137.965 
-0.000273772      14.0028      136.042 
5.66038e-05      11.3925     -36.1453 
-8.71209e-05      3.65906      25.5876 
2.81845e-05      8.80142      6.78632 
1.46456e-05      6.49804     -155.646 
-2.74299e-05      10.0738      6.95668 
-7.76917e-05      6.07468     -93.9666 
2.82117e-05      9.92009      76.3579 
-1.44602e-05      11.4217     -49.6151 
5.35088e-05      9.16555      1.99870 
8.16069e-05      8.81176     -144.794 
1.42951e-05      11.4208     -36.1674 
1.42936e-05      8.56726      168.009 
2.78801e-05      8.31258     -157.507 
8.68929e-05      7.30937     -9.92552 
-1.42908e-05      4.00761      129.332 
-1.42201e-05      8.55571     -39.3089 
-6.52119e-05      11.1244      49.6674 
1.41630e-05      10.1611     -25.9103 
8.48262e-05      8.16562     -23.9882 
-6.40712e-05      3.63210      36.4982 
-0.000134532      8.56201     -178.659 
2.63041e-05      9.33227      52.6620 
1.39269e-05      5.63120      46.7279 
-0.000173433      10.2961     -147.050 
4.97463e-05      6.48027     -155.575 
6.19343e-05      9.31621     -126.794 
-0.000219858      12.2878     -51.0779 
-3.91594e-05      10.4884      28.4701 
-1.38070e-05      1.83199      169.307 
-1.37295e-05      10.1963     -86.7388 
1.36757e-05      10.5687     -71.8043 
