! Center RA: 12 21 31.69052,  Dec: +28 13 58.50019 (2000.0)
! Established model.
! Flux (Jy) Radius (mas)  Theta (deg)  Major FWHM (mas)  Axial ratio   Phi (deg) T \
! Freq (Hz)     SpecIndex
 0.0685113     0.220795     -84.7351 
 0.0163637     0.243395     -80.5958 
0.00589496     0.141777     -98.2159 
0.00813434     0.121759     -99.5784 
 0.0306254     0.266484     -76.9812 
 0.0102625     0.126477     -108.327 
 0.0168678     0.107434     -111.727 
0.000551308     0.223431     -79.7468 
0.00154800     0.101837     -101.476 
0.00749210    0.0896014     -116.350 
0.00506074     0.262662     -81.2912 
0.00566964    0.0720098     -123.524 
0.00758212     0.282706     -81.9129 
0.00583152    0.0633577     -108.650 
0.00142230    0.0562440     -135.000 
0.00226299     0.286260     -77.8948 
0.00160893    0.0446338     -116.996 
0.000255413     0.100252      126.784 
0.00318039     0.128090      128.817 
0.00202372     0.144435      123.773 
0.00250852    0.0828082     -104.162 
0.000230451     0.291183     -73.9938 
0.000451538     0.297155     -70.3754 
0.000221342     0.280627     -85.8598 
0.000644514     0.304558     -66.7829 
0.00282227     0.161670      119.778 
0.000425700     0.279894     -90.0000 
0.000609854     0.313099     -63.3735 
0.000403156     0.280627     -94.1402 
0.000578501     0.322315     -60.2717 
0.00111484     0.302778     -97.5477 
0.00128865     0.178866      116.673 
0.000726440     0.315980     -55.2532 
0.000177075     0.223834      116.479 
0.00294059     0.327950     -52.3435 
0.000841401     0.306099     -101.310 
0.000172928     0.241454      114.414 
0.000336541     0.268467      116.565 
0.000794127     0.286050      114.817 
0.000315447     0.100252      143.216 
0.000159972     0.325253     -100.636 
0.00186610     0.329594     -104.100 
0.00116901     0.948461      108.449 
0.000587223     0.313099      116.626 
0.000290311    0.0802914     -90.0000 
0.000411263     0.340220     -49.7414 
0.000144234    0.0998015      180.000 
0.00316223     0.100252     -36.7841 
0.000214173    0.0848966     -45.0000 
0.00288714     0.304887      121.617 
0.000798991     0.300155     -53.1301 
0.000193331     0.134233      116.565 
0.00258894     0.312731     -50.1592 
0.000897241     0.116465      121.027 
0.00175951     0.632861      108.456 
0.00129401     0.113549     -45.0000 
0.000325463     0.639305      110.115 
0.00363671     0.651397      107.913 
0.00181125     0.332828      122.759 
0.000411069     0.116465     -31.0271 
0.000270313     0.113549      135.000 
0.00139504     0.929974      108.830 
0.000523562     0.325575     -47.5220 
0.000128208     0.116465      148.973 
0.000376269     0.334882     -107.339 
0.000248530     0.141777     -171.784 
0.000124446     0.322315      119.728 
0.000123673     0.134233     -26.5651 
0.00112194     0.339586     -45.0000 
0.000908842     0.354273     -106.362 
0.000118523     0.164706     -166.027 
0.00292209     0.942245      107.281 
0.000115137     0.145849     -15.8239 
0.000114722     0.170734     -159.414 
0.00237655      1.22711      109.022 
0.000535677     0.189835     -161.565 
0.000211153     0.164706     -13.9729 
0.000688433     0.360505     -109.453 
0.000100232     0.197181     -155.971 
0.000196208     0.353651     -47.2356 
0.000958037     0.353651     -42.7644 
0.000516211     0.350038      120.964 
0.000881934     0.215843     -158.162 
0.000274263     0.181229     -6.41879 
9.52062e-05     0.373757     -105.487 
9.21470e-05     0.388092     -101.940 
0.000265804     0.553458      130.601 
0.000419474     0.645453      106.202 
0.000339425     0.404436     -98.5360 
8.76434e-05     0.349107     -113.700 
0.000396648     0.170734      110.586 
8.47492e-05     0.367749     -112.431 
0.000397680     0.551483      133.511 
0.000583735     0.357396     -116.565 
7.90413e-05     0.241454     -155.586 
0.000517251     0.424483     -98.1301 
0.00119126      1.86307      119.590 
0.00109249      1.23993      107.832 
0.000994991     0.664933      105.714 
0.000959454     0.367178     -45.0000 
0.000295709      1.30136      136.262 
0.000559273     0.234065     -159.938 
0.000146270     0.200353      0.00000 
0.000965127      1.87316      120.129 
0.000326020     0.566349      137.900 
0.00226366      1.30226      137.475 
0.000193297     0.164706      103.973 
0.000202738     0.564587      67.0814 
0.00128966     0.443806     -97.7739 
0.000127757     0.569504      71.5651 
0.000466419     0.227911     -164.728 
0.000118451     0.220795      5.26495 
6.21199e-05     0.563176      62.5472 
0.000175330     0.366905     -119.396 
0.000179858     0.577108      75.9276 
6.10385e-05     0.377263      122.078 
0.000224766     0.572799      60.7486 
0.000572253     0.923634      107.640 
-0.00168517      1.32819      37.0317 
5.71246e-05     0.568413      140.679 
0.000222652     0.596781      76.4006 
0.000538921     0.253192     -161.511 
0.000108097     0.584228      141.938 
0.00249269      1.54459     -138.683 
0.00173236     0.463888     -97.4354 
0.000256222     0.612198      78.6901 
0.000102405     0.243395      9.40424 
0.000102839     0.180093      90.0000 
0.000198864     0.588377      144.709 
0.000197158     0.582967      59.0109 
0.000775739     0.381773     -42.8494 
0.000564569      1.28794      136.889 
0.000289263     0.247514     -165.964 
0.000187482     0.181229      83.5812 
0.000225103      1.25851      107.560 
-0.00180036      3.84077      28.9687 
9.47766e-05     0.647814      81.1378 
0.000134485     0.350038     -120.964 
0.000131387     0.631341      79.0373 
0.000948808      1.88071      119.286 
0.000179792     0.593248      147.395 
0.00188620      1.81836     -129.642 
8.80001e-05     0.266484      13.0188 
0.000213501     0.667840      81.4056 
0.000133123     0.600426      60.0064 
0.00241549      3.92382      113.427 
0.000476718     0.936427      106.097 
0.000299775      3.67392      121.869 
0.000244814     0.609552     -48.9932 
0.00130808     0.184432      77.5470 
0.000125328     0.610413      148.420 
0.000336401     0.610413      58.4202 
4.24352e-05      2.14685      115.374 
0.00152393      2.92879      17.0747 
0.000335795      2.15665      114.657 
0.000829808     0.913801     -10.0734 
0.000252045     0.332828     -122.759 
0.000465202      2.13825      114.883 
0.000966806      3.66752      122.305 
0.000441739     0.618057      150.945 
0.000536208      3.07668      26.2276 
4.00338e-05     0.720656      1.61102 
0.000218359      1.27218      106.447 
0.000319312     0.260038     -157.431 
7.47226e-05     0.651243      79.3763 
-0.000497584      1.31609      36.3276 
0.000216580      3.08353      2.60826 
0.000681917     0.963658     -131.622 
3.64222e-05     0.616492      76.8433 
0.000136841     0.740950      3.07683 
0.00263640      3.08569      26.5651 
0.000602031     0.670704      107.381 
7.06899e-05     0.687137      81.6487 
-0.000442249      2.50090      120.250 
0.000206568      3.06329      2.62551 
6.88009e-05     0.690371      79.9848 
0.000371769     0.315980     -124.747 
0.000194612     0.710331      80.2690 
6.65428e-05      3.04305      2.64298 
-0.000679650      2.25809      18.6035 
3.32111e-05      3.04402      3.00982 
0.000544591     0.625863      153.435 
0.000193262      3.02453      3.02922 
-0.00251089      2.49076      119.848 
9.54784e-05     0.268467     -153.435 
0.00131839      1.29091      106.202 
-0.00189202      2.76102      42.3564 
0.000155086      1.53178     -139.231 
0.000263000      3.00430      3.04964 
0.00154587     0.910591     -8.86462 
0.000328174      2.17605     -126.036 
0.000209512      2.92290      16.6950 
-0.000920580      3.63576      21.6301 
3.06102e-05      2.96360      2.71389 
0.000221416     0.286050     -155.183 
9.05879e-05      2.94336      2.73256 
0.000146101     0.730308      80.5377 
0.000147964      1.55987     -139.174 
0.000284191     0.189835      71.5651 
0.000147164      2.92313      2.75150 
8.86322e-05      1.48416     -127.316 
0.000441995      3.43480      117.013 
5.87082e-05      2.27898     -132.505 
-0.000715635      3.85785      28.8284 
0.000849382     0.850886     -150.406 
-0.000584937      3.48606     -3.29476 
0.000266324     0.621263      56.8282 
0.000222134      2.90364      2.76998 
0.000305535      2.58020      7.11675 
0.000793414      2.29272     -132.878 
0.00103415      1.52438     -128.083 
8.46477e-05     0.300155     -126.870 
0.000662313      1.54718     -139.721 
0.000380769      2.51974      47.5828 
-0.00102517      2.25171      18.1149 
0.000324920      2.20392     -126.136 
0.000397270      1.22562      56.3099 
5.53872e-05      3.16392      2.89566 
3.98690e-05     0.753070      79.2611 
0.000661427     0.295127     -151.610 
-0.000275342      2.83253      38.4062 
2.69403e-05     0.278118     -149.699 
0.000222929      3.18415      2.87724 
0.000129880     0.772985      79.5409 
0.000236143      1.88802      118.460 
0.000549721      2.84275      2.42057 
0.000155320      2.58123      102.525 
0.000791705      2.59956      7.06347 
5.13189e-05      2.98407      3.07034 
0.00160888      2.53345      47.2446 
-0.000567069      3.50554     -3.27644 
0.000730270      1.28865      138.139 
0.00142374      2.56219      102.620 
9.75279e-05      3.02567      3.41235 
0.000615409     0.795867      78.4146 
0.000208506      1.27784      107.286 
0.00107797      1.26515      55.2920 
0.00248678      3.06758      26.7343 
0.000754640      2.38436      93.3739 
-7.11173e-05      1.34049      37.7231 
-0.000869212      3.60390      2.54189 
0.000483877     0.676788      108.957 
0.000301343     0.635505      155.886 
-0.00169144      2.73239      42.3287 
-0.000227178      2.41594      19.3354 
-4.68642e-05      2.74741      42.0442 
0.000162227      3.09493      5.56545 
-0.000548569      1.34537      41.9706 
-0.00169301      2.61116      95.2764 
0.00113620      3.66401      102.286 
-0.000525148      2.86099      38.4721 
0.000111390      3.20364      2.85972 
0.000774739      1.56212     -140.184 
4.23547e-05      1.78984     -129.556 
-0.000395504      3.60486      2.86360 
0.000101909     0.977233     -132.510 
-0.000495971      2.44180      19.6266 
0.000819850      3.94173      113.315 
0.000120170      2.19247     -125.725 
0.000670027      3.20273      2.51113 
0.000545109      2.82251      2.43794 
0.000694666      2.30655     -133.247 
-0.00148027      2.99799      108.671 
0.000274514     0.868561     -151.066 
-0.00124507      3.87562      28.6839 
-0.00119086      1.34416      43.1903 
7.82169e-05     0.384685      117.915 
0.000211742      3.45286      116.860 
0.000420035      3.22736      22.5881 
3.98762e-05      1.87880      117.937 
3.96114e-05     0.954815      109.560 
-0.000665465      3.48901      25.8321 
0.000213860      1.88802     -151.540 
0.000704508     0.446997     -100.348 
-0.00117459      3.73135      15.2268 
0.000176699      1.89672      117.650 
0.000129334      3.93375      113.044 
0.000347767      2.61967      7.00898 
1.89227e-05     0.967701      108.070 
0.000222056     0.973929      109.161 
0.000383397      2.40384      93.3465 
0.000271460      1.54922     -140.759 
0.000458520      2.46746      109.895 
0.000447219     0.962396     -133.326 
8.94962e-05     0.304887     -148.383 
1.83801e-05      2.40274      92.8642 
3.62474e-05     0.966811      155.563 
0.000400322      3.07869      33.0742 
-1.81411e-05      3.61763      21.7440 
-0.00122647      4.10523      116.312 
0.000231829     0.895107     -150.577 
-0.000304366      2.46089      19.4681 
-3.53782e-05      3.90096      28.1425 
0.000157308      3.20935      22.7219 
0.000100281      2.16420     -125.602 
0.000100519     0.984607      156.033 
-0.00124331      1.66430      125.216 
0.000558344      1.31037      105.954 
0.000377837      2.31996     -133.598 
3.42412e-05     0.300155     -143.130 
1.72151e-05     0.375627      115.183 
0.000845483      3.19860      23.1968 
-0.00103631      2.48111      119.457 
1.68591e-05     0.819935      77.3119 
0.00141836      1.29292      55.0924 
0.000174619      4.14742      121.392 
-0.00146286      1.44795      122.578 
0.000173071      4.31160      121.920 
-0.000536874      2.24549      17.6236 
0.00125820      2.57707      102.102 
4.88904e-05      1.88740      117.105 
0.000187295      2.80227      2.45556 
0.000308039      1.58939      111.405 
6.21262e-05      3.04641      3.77089 
8.72801e-05      2.82321      30.1907 
0.000235287      1.90479      116.838 
0.000151977     0.815725     -168.700 
0.000116519      1.55236     -128.188 
4.67688e-05     0.288454     -146.351 
0.000263308      1.87880     -152.063 
3.09639e-05      1.76180     -129.487 
-0.000370721      2.48582      19.7422 
9.14972e-05      1.29046      160.996 
7.53622e-05     0.907689     -7.60090 
3.08052e-05     0.297458     -137.658 
0.000555322      2.34806     -133.627 
6.09052e-05      2.75242      8.78179 
-0.00101961      3.25598      105.314 
5.77428e-05      3.67255      122.992 
0.000178608      1.59241     -115.273 
9.49065e-05     0.980766      110.279 
4.23237e-05      1.56076     -149.169 
-9.89758e-05      2.88946      38.5366 
1.50149e-05      3.47028      116.715 
-0.000647226      3.48023      25.5319 
0.000571628     0.891319     -9.05789 
4.42924e-05     0.227911      164.728 
0.000229645      3.47943      117.013 
0.000193385     0.283342     -135.000 
0.000181313      2.77473      9.11843 
0.000195822      2.56153      47.2081 
0.000739408      2.78197      2.05589 
0.000190354      4.16409      121.252 
0.000110193      3.06663      3.74600 
0.000545871      3.64421      102.353 
9.85415e-05      4.30131      121.699 
0.000245738      1.30893      161.274 
2.81087e-05      1.73386     -129.380 
0.00106918      1.60827      111.141 
0.000690950      2.54781      47.5424 
0.000106101     0.912809     -151.202 
0.000432851      3.22297      2.49535 
0.000373687     0.839713     -167.616 
0.000505342     0.215843      158.162 
0.000132932     0.209153      73.3204 
9.46097e-05      3.10632      33.1718 
1.37049e-05      1.32987      105.714 
0.000489804      1.31587      106.771 
1.35503e-05     0.646553      158.199 
0.000293905      3.17999      23.3406 
0.000215348     0.776764      78.1256 
-2.60963e-05      3.46583     -3.31401 
0.000247886     0.695981      108.415 
9.06862e-05      4.31856      121.558 
5.25914e-05      1.37909     -119.536 
0.000365723      3.96034      113.199 
0.000114104      1.91392      116.023 
1.32691e-05     0.284207     -140.679 
2.61012e-05      1.59287     -128.900 
3.93193e-05      3.52248      10.8049 
-0.000410247      2.01657      97.3974 
1.31477e-05      2.84009      29.9927 
-1.31550e-05      3.62491      22.0305 
1.31331e-05      2.18070     -125.292 
0.000344401      3.09568      32.8696 
-1.29927e-05      2.91688      38.5977 
5.10171e-05      2.79589      30.0539 
0.000498831      2.36209     -133.983 
0.000160799      2.77170      8.72022 
1.29623e-05      3.06537      3.36811 
2.51569e-05      3.66669      123.430 
0.000455343      3.54608      11.0531 
-1.28330e-05      2.92956      38.9073 
0.000274571      1.39675     -119.126 
-0.000316269      2.50490      19.5857 
-0.000310474      3.60613      22.1512 
-0.000161776      2.94233      39.2144 
0.000228406      2.38559      93.8416 
-9.36064e-05      1.04875      34.9181 
8.47144e-05      4.18142      121.108 
0.000201753     0.427819     -100.817 
1.25085e-05      1.62089     -128.987 
0.000731927      3.90034      22.6182 
0.000142933      2.75132      30.1035 
0.000103884     0.215843      68.1616 
8.29701e-05      4.30800      121.328 
8.88128e-05      1.64939     -129.091 
0.000417152      3.62516      102.419 
0.000391881      3.15169      23.9653 
0.000217126      3.49750      116.862 
0.000209250      1.93214      115.759 
-0.000326649     0.842640     -67.7059 
-0.000239009      2.23966      17.1479 
0.000333054      2.79473      9.05260 
0.000194115     0.947759     -134.166 
0.000118295      2.47443      110.336 
-7.92680e-05      2.51608      53.4035 
0.000100299      4.19878      120.966 
-0.000110643      1.46443      122.167 
0.000128228     0.284207     -129.321 
-0.000307991      3.89340      28.5408 
0.000253148      2.70611      30.1627 
5.42404e-05      4.29750      121.098 
0.000254238      1.40417      169.345 
8.49006e-05      1.57468     -139.639 
-0.000241918      1.10196     -15.8061 
6.48880e-05      3.86022      106.557 
-0.000189429      2.03426      96.7790 
0.000210009      3.97038      112.819 
9.86126e-05     0.987971      111.381 
0.000167413      1.41383     -118.742 
-0.000176642      2.49984      53.1267 
-0.000260119      4.08708      116.438 
-0.000300312      2.71745      42.6164 
-9.35931e-05      2.50994     -5.02539 
0.000175583      2.34809     -134.314 
0.000114264      1.29649      107.030 
5.18082e-05     0.223834      63.5208 
-2.09156e-05      1.03728      34.0005 
-0.000167135      2.33971      0.00000 
-9.28465e-05      2.01415      96.8470 
2.11168e-05      1.86939     -152.612 
-0.000133406      2.53081      19.8641 
1.05512e-05      1.32813      161.555 
7.17783e-05      2.32971      11.8963 
4.16487e-05      4.21552      120.829 
9.16965e-05     0.702644      109.983 
-0.000122261      3.26139      105.657 
0.000142210      2.57290      101.661 
6.08366e-05      3.85450      106.269 
-0.000101153      3.61382      22.4487 
-9.03792e-05      2.35997      0.00000 
0.000110857      3.14121      24.4406 
3.02813e-05      1.78866     -153.435 
1.02390e-05      4.28745      120.874 
1.01756e-05      4.25967      120.780 
-6.01512e-05      3.42944      110.132 
3.01702e-05      4.23293      120.689 
2.00832e-05      3.10382      26.3978 
1.00775e-05      2.90224      29.7467 
-1.00574e-05      3.42732     -3.67806 
-1.99029e-05      1.08423     -37.5202 
2.98124e-05      3.60537      102.489 
2.97629e-05      3.24239      2.12208 
2.97569e-05      1.40070      170.129 
1.98509e-05      4.24972      120.554 
-9.90372e-06      3.46067      6.29903 
-9.91710e-06      3.08448     -2.97030 
0.00158628      4.98916     -98.0667 
0.000917271      4.96985     -98.0983 
0.00203063      4.37006     -38.4954 
0.000386608      5.67125      135.429 
-0.00117729      3.91654      145.823 
0.00126921      5.68549      135.283 
-0.00118370      9.99337      132.569 
-0.00152775      4.42659      32.8280 
0.00135797      10.1681     -103.190 
-0.00124446      12.0546     -56.9163 
-0.00145781      1.85335      43.6876 
-0.000957772      4.16433      143.795 
0.00142096      5.88236     -17.8201 
-0.000228507      3.71213      41.5008 
0.00120286      12.2807     -127.522 
0.00139991      8.79245     -26.9149 
0.000677539      13.2753     -138.481 
-0.000592163      3.72676      41.3020 
0.000605137      10.1266      141.819 
-0.000482753      5.98113      9.43042 
0.000205228      6.19452      44.4798 
-0.000571794      3.41165     -113.859 
-0.000847243      8.65113     -15.4177 
-0.000566562      9.25997      89.6286 
0.000567584      8.72034     -123.399 
-0.000289416      11.1014     -44.7809 
0.000198060      7.77282      26.7605 
-0.000553900      5.48799     -79.7134 
0.000466553      4.83318      175.726 
-0.000959316      7.40648     -42.0433 
0.000370440      12.1889      53.6754 
0.000377975      6.41048     -149.437 
0.000720691      6.22265      44.4772 
-0.000539928      3.92753      145.587 
0.00110841      9.90417      52.7125 
-0.000738364      6.23910     -6.44293 
-0.000187416      7.39292     -41.9267 
-0.000359460      5.97784      9.23885 
0.000281555      10.1878     -103.164 
0.000362779      4.92096      34.4001 
-0.000358474      9.95814      30.2729 
0.000182736      7.80240      156.591 
-0.000266078      6.48407     -1.94317 
0.000182433      10.4353     -14.9946 
0.000435774      7.53622     -97.0118 
-0.000263546      4.58203      146.929 
0.000349977      4.36644     -38.8613 
0.000175466      10.0986      141.835 
-0.000174029      10.2772     -153.036 
